nm,Intensity
791.75,5331.45
792.024,5287.65
792.298,5240.05
792.572,5251.15
792.846,5222.55
793.12,5200.5
793.394,5225.35
793.668,5190.95
793.942,5171.85
794.215,5177.7
794.489,5179.15
794.763,5162.85
795.037,5169.35
795.311,5180.6
795.585,5175.75
795.859,5160.75
796.133,5167.75
796.407,5219.25
796.681,5188.25
796.955,5145.0
797.228,5114.95
797.502,5132.75
797.776,5107.7
798.05,5103.2
798.324,5100.75
798.598,5116.0
798.871,5130.0
799.145,5098.55
799.419,5099.0
799.693,5085.6
799.967,5091.5
800.241,5103.7
800.514,5080.05
800.788,5097.25
801.062,5061.35
801.336,5064.0
801.61,5098.5
801.883,5087.3
802.157,5088.45
802.431,5099.75
802.705,5040.55
802.978,5053.35
803.252,5005.1
803.526,5044.75
803.8,5041.7
804.073,5034.6
804.347,5051.7
804.621,5030.25
804.894,5020.55
805.168,5044.2
805.442,5022.75
805.715,5000.15
805.989,5020.95
806.263,5011.25
806.536,5004.2
806.81,4998.45
807.084,4972.0
807.357,4960.15
807.631,4972.65
807.905,5010.65
808.178,5002.65
808.452,4985.65
808.726,4959.4
808.999,4983.7
809.273,4983.55
809.546,4978.95
809.82,5016.35
810.094,5035.25
810.367,5047.45
810.641,5009.4
810.914,4982.15
811.188,4963.15
811.461,4936.8
811.735,4944.65
812.008,4961.35
812.282,4936.15
812.556,4946.8
812.829,4928.6
813.103,4924.3
813.376,4937.4
813.65,4937.25
813.923,4925.25
814.197,4905.5
814.47,4913.9
814.744,4909.45
815.017,4920.55
815.29,4904.15
815.564,4886.9
815.837,4853.55
816.111,4868.9
816.384,4899.25
816.658,4869.5
816.931,4851.45
817.205,4856.65
817.478,4862.65
817.751,4862.95
818.025,4854.05
818.298,4858.5
818.572,4867.95
818.845,4842.65
819.118,4836.1
819.392,4830.3
819.665,4850.45
819.938,4830.85
820.212,4825.4
820.485,4808.4
820.758,4804.05
821.032,4805.65
821.305,4813.7
821.578,4787.75
821.852,4772.5
822.125,4765.25
822.398,4783.5
822.672,4786.95
822.945,4794.7
823.218,4757.6
823.491,4748.35
823.765,4773.15
824.038,4758.45
824.311,4750.1
824.585,4761.05
824.858,4757.35
825.131,4757.9
825.404,4758.85
825.677,4739.9
825.951,4716.65
826.224,4728.3
826.497,4744.05
826.77,4728.25
827.043,4704.15
827.317,4708.8
827.59,4715.6
827.863,4714.95
828.136,4717.55
828.409,4708.2
828.682,4727.7
828.956,4753.0
829.229,4728.4
829.502,4701.95
829.775,4684.0
830.048,4677.5
830.321,4694.75
830.594,4691.0
830.867,4672.9
831.14,4673.4
831.413,4679.45
831.687,4676.1
831.96,4676.15
832.233,4680.45
832.506,4690.15
832.779,4698.25
833.052,4678.15
833.325,4680.5
833.598,4668.5
833.871,4659.2
834.144,4654.6
834.417,4661.8
834.69,4650.2
834.963,4635.25
835.236,4654.25
835.509,4681.1
835.782,4655.6
836.055,4632.8
836.328,4650.75
836.601,4675.5
836.874,4647.25
837.147,4634.0
837.419,4678.2
837.692,4729.6
837.965,4732.75
838.238,4698.7
838.511,4641.6
838.784,4633.3
839.057,4636.9
839.33,4648.5
839.603,4664.5
839.876,4678.85
840.148,4690.9
840.421,4669.9
840.694,4647.9
840.967,4633.65
841.24,4619.7
841.513,4592.55
841.785,4583.15
842.058,4572.7
842.331,4573.1
842.604,4586.0
842.877,4564.45
843.149,4573.6
843.422,4573.5
843.695,4591.5
843.968,4585.65
844.24,4582.35
844.513,4565.2
844.786,4540.9
845.059,4542.75
845.331,4559.3
845.604,4548.7
845.877,4530.65
846.15,4576.9
846.422,4558.4
846.695,4548.2
846.968,4538.15
847.24,4545.0
847.513,4538.5
847.786,4529.7
848.058,4533.05
848.331,4538.65
848.604,4559.55
848.876,4554.8
849.149,4537.05
849.421,4533.2
849.694,4541.85
849.967,4541.5
850.239,4522.55
850.512,4510.15
850.784,4525.7
851.057,4553.2
851.33,4531.1
851.602,4514.7
851.875,4511.95
852.147,4500.15
852.42,4503.5
852.692,4501.45
852.965,4511.6
853.237,4506.8
853.51,4500.2
853.782,4478.3
854.055,4510.45
854.327,4511.05
854.6,4502.95
854.872,4473.8
855.145,4483.55
855.417,4494.2
855.69,4496.7
855.962,4473.85
856.235,4463.7
856.507,4455.65
856.779,4471.5
857.052,4450.7
857.324,4472.7
857.597,4484.15
857.869,4479.6
858.142,4456.15
858.414,4440.25
858.686,4458.25
858.959,4472.2
859.231,4458.9
859.503,4472.25
859.776,4452.0
860.048,4435.75
860.32,4441.6
860.593,4440.75
860.865,4417.35
861.137,4433.7
861.41,4437.05
861.682,4458.4
861.954,4477.35
862.226,4466.9
862.499,4463.5
862.771,4481.0
863.043,4479.8
863.315,4453.25
863.588,4459.9
863.86,4439.65
864.132,4444.75
864.404,4437.75
864.677,4427.8
864.949,4415.65
865.221,4414.5
865.493,4425.45
865.765,4430.75
866.038,4422.55
866.31,4397.6
866.582,4406.5
866.854,4434.5
867.126,4417.5
867.398,4408.95
867.67,4400.55
867.943,4388.15
868.215,4389.95
868.487,4401.05
868.759,4379.45
869.031,4381.7
869.303,4381.75
869.575,4375.35
869.847,4376.0
870.119,4379.35
870.391,4376.8
870.663,4379.05
870.935,4389.2
871.207,4383.35
871.479,4373.8
871.751,4389.45
872.023,4367.15
872.295,4390.75
872.567,4400.9
872.839,4410.55
873.111,4392.7
873.383,4388.3
873.655,4379.1
873.927,4363.3
874.199,4368.05
874.471,4381.5
874.743,4387.75
875.015,4393.45
875.287,4377.65
875.559,4377.7
875.831,4393.35
876.103,4403.2
876.374,4378.55
876.646,4359.05
876.918,4361.3
877.19,4361.5
877.462,4341.1
877.734,4339.05
878.006,4351.0
878.277,4350.4
878.549,4337.75
878.821,4336.7
879.093,4337.25
879.365,4337.0
879.636,4317.45
879.908,4308.2
880.18,4292.15
880.452,4311.85
880.723,4294.35
880.995,4292.25
881.267,4292.85
881.539,4303.2
881.81,4299.95
882.082,4299.35
882.354,4296.0
882.626,4300.45
882.897,4290.3
883.169,4294.5
883.441,4293.3
883.712,4309.4
883.984,4319.05
884.256,4316.6
884.527,4325.75
884.799,4330.8
885.07,4320.9
885.342,4321.95
885.614,4319.55
885.885,4320.9
886.157,4319.5
886.428,4306.25
886.7,4292.6
886.972,4264.6
887.243,4256.1
887.515,4255.45
887.786,4252.6
888.058,4236.75
888.329,4227.45
888.601,4229.05
888.872,4243.8
889.144,4232.2
889.415,4232.8
889.687,4234.05
889.958,4235.95
890.23,4220.55
890.501,4226.1
890.773,4223.5
891.044,4226.05
891.316,4239.65
891.587,4230.2
891.859,4205.1
892.13,4216.6
892.401,4221.25
892.673,4214.65
892.944,4210.1
893.216,4198.05
893.487,4181.0
893.758,4189.6
894.03,4198.55
894.301,4195.95
894.572,4187.25
894.844,4172.15
895.115,4170.6
895.386,4184.65
895.658,4173.1
895.929,4180.1
896.2,4178.4
896.472,4171.0
896.743,4179.4
897.014,4166.1
897.285,4165.55
897.557,4171.7
897.828,4155.2
898.099,4145.8
898.37,4137.55
898.642,4130.9
898.913,4147.45
899.184,4154.75
899.455,4141.35
899.726,4146.65
899.998,4144.0
900.269,4131.4
900.54,4135.0
900.811,4128.75
901.082,4117.6
901.353,4106.85
901.625,4116.5
901.896,4120.5
902.167,4113.85
902.438,4121.45
902.709,4126.6
902.98,4122.0
903.251,4109.05
903.522,4104.25
903.793,4104.7
904.064,4101.7
904.335,4101.35
904.606,4100.75
904.877,4092.65
905.148,4095.35
905.419,4088.8
905.69,4077.45
905.961,4083.7
906.232,4093.25
906.503,4085.95
906.774,4078.7
907.045,4086.6
907.316,4087.1
907.587,4077.7
907.858,4074.85
908.129,4069.1
908.4,4079.05
908.671,4070.9
908.942,4064.8
909.213,4063.7
909.484,4057.35
909.755,4056.95
910.025,4056.3
910.296,4065.45
910.567,4060.75
910.838,4065.3
911.109,4056.1
911.38,4057.1
911.65,4049.95
911.921,4042.05
912.192,4042.7
912.463,4032.65
912.734,4026.35
913.004,4025.25
913.275,4029.5
913.546,4022.4
913.817,4020.5
914.087,4027.35
914.358,4046.8
914.629,4036.15
914.9,4030.5
915.17,4019.85
915.441,4024.05
915.712,4023.4
915.982,4018.95
916.253,4019.65
916.524,4000.1
916.794,4004.5
917.065,4016.15
917.336,4009.55
917.606,4002.45
917.877,3999.25
918.147,3999.2
918.418,3993.9
918.689,3998.85
918.959,3998.35
919.23,4001.25
919.5,4009.45
919.771,3999.05
920.042,3985.15
920.312,3990.75
920.583,3993.5
920.853,3989.3
921.124,3985.05
921.394,3983.35
921.665,3978.65
921.935,3970.9
922.206,3965.55
922.476,3976.85
922.747,3981.05
923.017,3973.7
923.287,3973.2
923.558,3963.55
923.828,3958.55
924.099,3961.65
924.369,3948.05
924.639,3954.35
924.91,3958.15
925.18,3963.8
925.451,3964.45
925.721,3962.95
925.991,3950.2
926.262,3941.0
926.532,3950.15
926.802,3947.25
927.073,3938.85
927.343,3947.3
927.613,3943.55
927.884,3930.9
928.154,3932.35
928.424,3934.3
928.694,3934.3
928.965,3930.05
929.235,3932.75
929.505,3939.05
929.775,3930.75
930.046,3930.0
930.316,3924.85
930.586,3923.65
930.856,3921.75
931.126,3915.15
931.397,3916.95
931.667,3916.75
931.937,3917.35
932.207,3918.45
932.477,3912.85
932.747,3912.7
933.017,3911.85
933.288,3902.2
933.558,3903.85
933.828,3903.35
934.098,3899.9
934.368,3900.75
934.638,3899.2
934.908,3900.35
935.178,3900.8
935.448,3897.1
935.718,3890.1
935.988,3894.25
936.258,3896.5
936.528,3893.5
936.798,3887.3
937.068,3886.65
937.338,3884.45
937.608,3886.75
937.878,3888.05
938.148,3875.5
938.418,3881.35
938.688,3882.1
938.958,3874.65
939.228,3880.05
939.498,3881.65
939.767,3876.8
940.037,3877.3
940.307,3875.95
940.577,3873.05
940.847,3867.45
941.117,3866.25
941.387,3868.75
941.656,3874.9
941.926,3867.45
942.196,3866.7
942.466,3864.5
942.736,3862.75
943.005,3861.85
943.275,3856.25
943.545,3857.2
943.815,3852.3
944.084,3858.0
944.354,3858.7
944.624,3855.05
944.894,3852.35
945.163,3853.85
945.433,3852.9
945.703,3854.6
945.972,3851.95
946.242,3853.0
946.512,3844.8
946.781,3842.05
947.051,3840.4
947.321,3839.8
947.59,3841.8
947.86,3841.45
948.13,3840.9
948.399,3840.25
948.669,3840.05
948.938,3838.7
949.208,3843.25
949.477,3839.95
949.747,3836.4
950.016,3835.05
950.286,3831.6
950.556,3836.25
950.825,3831.0
951.095,3832.05
951.364,3831.85
951.634,3835.55
951.903,3826.6
952.172,3823.9
952.442,3829.7
952.711,3828.9
952.981,3822.8
953.25,3824.8
953.52,3817.0
953.789,3818.85
954.058,3818.9
954.328,3820.05
954.597,3823.35
954.867,3818.6
955.136,3817.75
955.405,3818.8
955.675,3821.65
955.944,3816.05
956.213,3819.15
956.483,3815.65
956.752,3808.55
957.021,3813.0
957.29,3812.9
957.56,3813.75
957.829,3813.95
958.098,3810.2
958.367,3805.9
958.637,3807.15
958.906,3805.8
959.175,3810.45
959.444,3805.8
959.714,3805.8
959.983,3799.55
960.252,3800.25
960.521,3799.6
960.79,3800.5
961.059,3798.75
961.328,3796.95
961.598,3797.7
961.867,3796.65
962.136,3794.3
962.405,3796.25
962.674,3795.65
962.943,3796.65
963.212,3797.75
963.481,3794.9
963.75,3796.1
964.019,3788.55
964.288,3792.0
964.557,3790.95
964.826,3792.75
965.095,3790.05
965.364,3789.65
965.633,3784.95
965.902,3789.2
966.171,3785.5
966.44,3781.75
966.709,3784.5
966.978,3783.6
967.247,3781.95
967.516,3785.75
967.785,3781.6
968.054,3782.0
968.323,3783.35
968.591,3784.45
968.86,3785.7
969.129,3781.15
969.398,3781.9
969.667,3779.95
969.936,3779.95
970.204,3779.35
970.473,3779.15
970.742,3773.7
971.011,3774.85
971.28,3775.0
971.548,3773.75
971.817,3774.85
972.086,3773.2
972.355,3773.4
972.623,3776.8
972.892,3778.05
973.161,3773.6
973.429,3774.05
973.698,3772.75
973.967,3768.75
974.235,3767.2
974.504,3769.2
974.773,3769.05
975.041,3765.8
975.31,3767.5
975.579,3765.15
975.847,3766.6
976.116,3767.1
976.384,3768.85
976.653,3765.55
976.922,3764.55
977.19,3766.15
977.459,3766.95
977.727,3764.7
977.996,3762.2
978.264,3761.55
978.533,3762.25
978.801,3762.85
979.07,3759.45
979.338,3758.4
979.607,3760.1
979.875,3757.35
980.143,3758.85
980.412,3757.25
980.68,3759.2
980.949,3760.0
981.217,3759.75
981.486,3760.4
981.754,3756.95
982.022,3756.15
982.291,3757.0
982.559,3757.5
982.827,3758.2
983.096,3757.25
983.364,3755.55
983.632,3753.65
983.901,3754.8
984.169,3752.45
984.437,3754.0
984.705,3752.35
984.974,3752.9
985.242,3751.85
985.51,3753.35
985.778,3752.85
986.047,3752.3
986.315,3750.65
986.583,3749.7
986.851,3747.45
987.119,3749.85
987.388,3748.4
987.656,3747.7
987.924,3747.4
988.192,3749.0
988.46,3746.9
988.728,3747.05
988.996,3747.1
989.264,3749.0
989.533,3745.75
989.801,3744.75
990.069,3743.75
990.337,3747.15
990.605,3744.2
990.873,3745.75
991.141,3743.45
991.409,3742.8
991.677,3743.7
991.945,3744.05
992.213,3743.1
992.481,3743.1
992.749,3743.55
993.017,3741.05
993.285,3743.8
993.553,3741.85
993.82,3742.55
994.088,3740.6
994.356,3741.75
994.624,3743.05
994.892,3740.2
995.16,3738.7
995.428,3737.45
995.696,3740.75
995.963,3737.9
996.231,3738.75
996.499,3739.9
996.767,3737.65
997.035,3738.3
997.302,3740.3
997.57,3740.65
997.838,3737.0
998.106,3737.5
998.373,3736.35
998.641,3738.05
998.909,3734.6
999.177,3736.15
999.444,3735.35
999.712,3735.9
999.98,3734.25
1000.25,3733.15
1000.51,3734.7
1000.78,3734.55
1001.05,3731.95
1001.32,3732.0
1001.59,3732.9
1001.85,3732.35
1002.12,3729.6
1002.39,3729.35
1002.66,3731.0
1002.92,3730.05
1003.19,3730.85
1003.46,3730.05
1003.73,3732.7
1003.99,3727.65
1004.26,3728.35
1004.53,3729.15
1004.8,3727.0
1005.06,3727.7
1005.33,3728.25
1005.6,3729.15
1005.87,3729.4
1006.13,3727.55
1006.4,3728.9
1006.67,3728.35
1006.94,3729.4
1007.2,3726.4
1007.47,3727.25
1007.74,3728.15
1008.0,3729.3
1008.27,3730.35
1008.54,3731.8
1008.81,3731.65
1009.07,3733.4
1009.34,3730.45
1009.61,3735.0
1009.88,3733.85
1010.14,3731.2
1010.41,3732.8
1010.68,3731.7
1010.95,3735.6
1011.21,3737.25
1011.48,3738.5
1011.75,3736.85
1012.01,3737.75
1012.28,3737.05
1012.55,3736.3
1012.82,3738.4
1013.08,3739.55
1013.35,3741.5
1013.62,3742.25
1013.88,3742.7
1014.15,3740.4
1014.42,3739.55
1014.69,3737.45
1014.95,3739.15
1015.22,3742.45
1015.49,3739.0
1015.75,3737.05
1016.02,3736.4
1016.29,3735.8
1016.55,3732.0
1016.82,3735.0
1017.09,3734.45
1017.36,3732.7
1017.62,3730.95
1017.89,3731.9
1018.16,3727.95
1018.42,3727.95
1018.69,3726.95
1018.96,3726.55
1019.22,3725.1
1019.49,3726.4
1019.76,3728.75
1020.02,3725.85
1020.29,3723.75
1020.56,3723.75
1020.83,3724.75
1021.09,3725.25
1021.36,3724.4
1021.63,3723.9
1021.89,3723.5
1022.16,3723.25
1022.43,3722.6
1022.69,3719.9
1022.96,3720.3
1023.23,3721.15
1023.49,3719.35
1023.76,3716.85
1024.03,3716.45
1024.29,3718.7
1024.56,3716.25
1024.83,3717.95
1025.09,3716.25
1025.36,3715.95
1025.63,3715.15
1025.89,3715.4
1026.16,3714.9
1026.43,3715.05
1026.69,3713.15
1026.96,3714.75
1027.23,3713.85
1027.49,3714.45
1027.76,3714.15
1028.03,3713.5
1028.29,3713.55
1028.56,3712.85
1028.83,3711.1
1029.09,3713.15
1029.36,3714.05
1029.62,3712.55
1029.89,3712.1
1030.16,3713.0
1030.42,3712.7
1030.69,3712.7
1030.96,3712.1
1031.22,3712.75
1031.49,3712.4
1031.76,3711.65
1032.02,3711.45
1032.29,3710.4
1032.56,3711.9
1032.82,3711.25
1033.09,3710.75
1033.35,3711.65
1033.62,3711.2
1033.89,3711.6
1034.15,3711.95
1034.42,3711.35
1034.69,3712.25
1034.95,3710.45
1035.22,3710.95
1035.48,3711.0
1035.75,3710.15
1036.02,3709.65
1036.28,3710.05
1036.55,3708.8
1036.81,3709.25
1037.08,3710.5
1037.35,3710.4
1037.61,3709.6
1037.88,3710.1
1038.15,3708.5
1038.41,3708.35
1038.68,3709.95
1038.94,3710.7
1039.21,3711.0
1039.48,3709.9
1039.74,3709.3
1040.01,3710.7
1040.27,3708.85
1040.54,3709.7
1040.81,3708.15
1041.07,3707.55
1041.34,3707.9
1041.6,3707.65
1041.87,3710.0
1042.14,3707.95
1042.4,3707.75
1042.67,3709.2
1042.93,3708.1
1043.2,3708.25
1043.47,3707.4
1043.73,3708.25
1044.0,3708.3
1044.26,3708.45
1044.53,3706.7
1044.79,3708.65
1045.06,3708.65
1045.33,3706.85
1045.59,3707.15
1045.86,3706.35
1046.12,3707.75
1046.39,3708.65
1046.65,3707.55
1046.92,3708.05
1047.19,3708.35
1047.45,3707.05
1047.72,3706.9
1047.98,3707.95
1048.25,3707.85
1048.51,3708.8
1048.78,3707.75
1049.05,3708.1
1049.31,3708.8
1049.58,3706.9
1049.84,3705.15
1050.11,3707.95
1050.37,3707.25
1050.64,3707.1
1050.91,3708.3
1051.17,3708.2
1051.44,3707.0
1051.7,3708.2
1051.97,3707.3
1052.23,3708.05
1052.5,3706.85
1052.76,3707.05
1053.03,3705.4
1053.29,3707.2
1053.56,3705.35
1053.83,3707.3
1054.09,3707.05
1054.36,3707.05
1054.62,3706.05
1054.89,3707.6
1055.15,3707.1
1055.42,3707.2
1055.68,3705.0
1055.95,3705.55
1056.21,3708.0
1056.48,3706.0
1056.74,3707.4
1057.01,3706.6
1057.27,3704.5
1057.54,3707.0
1057.81,3706.55
1058.07,3706.95
1058.34,3707.7
1058.6,3707.3
1058.87,3704.85
1059.13,3705.7
1059.4,3705.5
1059.66,3707.05
1059.93,3705.45
1060.19,3707.2
1060.46,3706.3
1060.72,3705.95
1060.99,3704.85
1061.25,3706.45
1061.52,3705.8
1061.78,3706.45
1062.05,3704.4
1062.31,3706.9
1062.58,3707.05
1062.84,3705.65
1063.11,3705.6
1063.37,3704.45
1063.64,3704.9
1063.9,3706.25
1064.17,3704.9
1064.43,3706.45
1064.7,3706.65
1064.96,3706.2
1065.23,3705.2
1065.49,3703.9
1065.76,3705.4
1066.02,3705.9
1066.29,3705.15
1066.55,3706.15
1066.82,3706.4
1067.08,3705.8
1067.35,3705.7
1067.61,3704.35
1067.88,3704.35
