nm,Intensity
528.626,1861.48
528.711,1861.66
528.795,1862.14
528.879,1861.82
528.963,1861.12
529.048,1861.52
529.132,1861.78
529.216,1862.2
529.3,1862.7
529.385,1862.3
529.469,1862.12
529.553,1862.48
529.637,1862.62
529.721,1862.16
529.806,1862.32
529.89,1861.9
529.974,1862.46
530.058,1862.88
530.143,1862.4
530.227,1862.44
530.311,1863.58
530.395,1863.1
530.48,1863.0
530.564,1862.24
530.648,1863.66
530.732,1862.76
530.816,1864.24
530.901,1862.98
530.985,1863.34
531.069,1864.44
531.153,1865.34
531.237,1864.8
531.322,1868.7
531.406,1870.44
531.49,1873.02
531.574,1880.52
531.658,1912.12
531.743,2042.14
531.827,2544.06
531.911,3597.92
531.995,5003.5
532.079,5539.14
532.164,4455.1
532.248,3085.22
532.332,2233.54
532.416,1911.0
532.5,1870.16
532.585,1866.02
532.669,1865.12
532.753,1864.94
532.837,1864.38
532.921,1864.42
533.006,1865.66
533.09,1866.12
533.174,1865.18
533.258,1867.52
533.342,1871.28
533.426,1881.4
533.511,1917.4
533.595,2016.24
533.679,2207.74
533.763,2495.04
533.847,2802.52
533.931,3064.22
534.016,3225.76
534.1,3310.98
534.184,3288.34
534.268,3266.5
534.352,3247.26
534.436,3224.48
534.521,3199.54
534.605,3157.62
534.689,3112.36
534.773,3088.86
534.857,3069.98
534.941,3024.98
535.025,2989.16
535.11,2953.9
535.194,2926.62
535.278,2930.88
535.362,2900.08
535.446,2892.28
535.53,2877.7
535.614,2854.26
535.699,2832.76
535.783,2801.34
535.867,2782.22
535.951,2768.04
536.035,2763.86
536.119,2767.88
536.203,2762.64
536.287,2751.6
536.372,2748.64
536.456,2746.32
536.54,2745.14
536.624,2735.66
536.708,2744.86
536.792,2729.22
536.876,2743.28
536.96,2740.3
537.044,2760.02
537.129,2764.38
537.213,2761.96
537.297,2763.66
537.381,2758.98
537.465,2767.9
537.549,2762.3
537.633,2765.18
537.717,2759.42
537.801,2778.7
537.885,2788.38
537.97,2775.92
538.054,2783.38
538.138,2783.76
538.222,2778.76
538.306,2791.68
538.39,2791.0
538.474,2781.24
538.558,2772.16
538.642,2775.18
538.726,2762.46
538.81,2775.56
538.894,2765.76
538.979,2757.82
539.063,2749.68
539.147,2740.98
539.231,2736.54
539.315,2749.1
539.399,2737.64
539.483,2746.88
539.567,2742.04
539.651,2729.1
539.735,2749.64
539.819,2761.02
539.903,2757.0
539.987,2763.5
540.071,2788.5
540.155,2772.74
540.239,2766.46
540.324,2773.52
540.408,2772.54
540.492,2758.94
540.576,2762.68
540.66,2769.94
540.744,2766.38
540.828,2773.5
540.912,2770.16
540.996,2774.54
541.08,2767.28
541.164,2778.36
541.248,2766.04
541.332,2784.4
541.416,2766.26
541.5,2782.7
541.584,2777.78
541.668,2800.2
541.752,2789.18
541.836,2807.32
541.92,2789.68
542.004,2778.76
542.088,2790.92
542.172,2792.38
542.256,2804.96
542.34,2802.84
542.424,2797.72
542.508,2813.3
542.592,2827.58
542.676,2822.68
542.76,2822.7
542.844,2814.12
542.928,2809.12
543.012,2813.0
543.096,2809.26
543.18,2795.78
543.264,2813.1
543.348,2824.92
543.432,2827.36
543.516,2821.3
543.6,2819.88
543.684,2825.1
543.768,2839.28
543.852,2835.54
543.936,2825.66
544.02,2813.9
544.104,2811.28
544.188,2807.62
544.272,2831.98
544.356,2836.54
544.44,2833.84
544.524,2827.62
544.608,2816.2
544.692,2835.12
544.776,2833.58
544.86,2839.18
544.944,2842.06
545.028,2837.06
545.112,2849.7
545.196,2846.22
545.28,2850.16
545.364,2842.42
545.448,2856.24
545.532,2856.9
545.616,2839.12
545.7,2849.56
545.784,2853.3
545.867,2855.0
545.951,2863.44
546.035,2854.02
546.119,2853.52
546.203,2869.32
546.287,2879.84
546.371,2864.26
546.455,2874.36
546.539,2867.74
546.623,2875.56
546.707,2870.72
546.791,2864.6
546.875,2872.5
546.959,2875.08
547.043,2877.3
547.127,2877.9
547.21,2882.58
547.294,2885.3
547.378,2885.54
547.462,2901.7
547.546,2891.02
547.63,2901.14
547.714,2913.7
547.798,2905.46
547.882,2915.72
547.966,2922.66
548.05,2910.72
548.134,2912.12
548.217,2918.14
548.301,2922.6
548.385,2926.68
548.469,2938.4
548.553,2920.64
548.637,2913.08
548.721,2928.8
548.805,2928.8
548.889,2924.56
548.972,2926.78
549.056,2928.36
549.14,2925.7
549.224,2929.44
549.308,2921.94
549.392,2934.64
549.476,2929.26
549.56,2922.7
549.644,2917.42
549.727,2915.2
549.811,2940.32
549.895,2920.44
549.979,2930.3
550.063,2952.78
550.147,2958.76
550.231,2971.22
550.315,2965.04
550.398,2975.1
550.482,2987.28
550.566,2953.46
550.65,2943.08
550.734,2933.94
550.818,2953.84
550.902,2959.86
550.985,2961.02
551.069,2965.42
551.153,2957.26
551.237,2962.28
551.321,2972.88
551.405,2973.9
551.488,2973.56
551.572,2966.32
551.656,2941.38
551.74,2964.98
551.824,2973.16
551.908,2975.72
551.991,2974.12
552.075,2973.82
552.159,2967.9
552.243,2965.0
552.327,2962.64
552.411,2991.1
552.494,2969.12
552.578,2955.16
552.662,2955.8
552.746,2958.84
552.83,2970.42
552.914,2971.96
552.997,2957.7
553.081,2946.66
553.165,2952.72
553.249,2968.88
553.333,2963.36
553.416,2946.1
553.5,2957.12
553.584,2960.42
553.668,2983.76
553.752,2985.82
553.835,2980.24
553.919,2970.6
554.003,2969.48
554.087,2972.44
554.171,2974.08
554.254,2998.72
554.338,3003.28
554.422,3001.0
554.506,3001.7
554.589,3025.84
554.673,3014.82
554.757,3001.48
554.841,3001.62
554.925,3013.62
555.008,3023.42
555.092,3004.28
555.176,3015.18
555.26,3032.34
555.343,3033.5
555.427,3008.62
555.511,3026.22
555.595,3054.48
555.679,3046.86
555.762,3041.58
555.846,3033.58
555.93,3033.86
556.014,3033.86
556.097,3017.18
556.181,3002.82
556.265,3013.84
556.349,3009.52
556.432,2997.08
556.516,2991.36
556.6,2975.12
556.684,2993.36
556.767,3000.88
556.851,2995.72
556.935,3029.74
557.018,3026.42
557.102,3014.7
557.186,3011.42
557.27,3007.56
557.353,2996.84
557.437,3012.36
557.521,3023.74
557.605,3029.76
557.688,3028.06
557.772,3032.6
557.856,3032.76
557.939,3021.06
558.023,3041.62
558.107,3037.14
558.191,3029.5
558.274,3011.16
558.358,3007.3
558.442,3035.42
558.525,3063.38
558.609,3058.72
558.693,3035.54
558.776,3038.42
558.86,3048.96
558.944,3062.92
559.028,3039.06
559.111,3051.08
559.195,3040.44
559.279,3052.12
559.362,3053.96
559.446,3061.98
559.53,3053.9
559.613,3058.18
559.697,3060.86
559.781,3070.26
559.864,3063.94
559.948,3054.52
560.032,3075.04
560.115,3069.2
560.199,3052.28
560.283,3063.16
560.366,3071.96
560.45,3056.08
560.534,3066.24
560.617,3072.8
560.701,3091.92
560.785,3097.2
560.868,3105.62
560.952,3106.96
561.036,3104.26
561.119,3111.24
561.203,3109.78
561.287,3105.98
561.37,3113.7
561.454,3117.44
561.538,3128.16
561.621,3161.6
561.705,3192.44
561.789,3214.94
561.872,3299.46
561.956,3424.18
562.039,3499.82
562.123,3545.02
562.207,3475.44
562.29,3344.5
562.374,3224.84
562.458,3149.86
562.541,3150.38
562.625,3173.08
562.708,3182.82
562.792,3189.42
562.876,3226.88
562.959,3256.0
563.043,3272.5
563.127,3243.3
563.21,3215.32
563.294,3204.94
563.377,3163.3
563.461,3141.98
563.545,3143.96
563.628,3163.7
563.712,3162.4
563.795,3137.94
563.879,3135.2
563.963,3171.02
564.046,3171.5
564.13,3156.16
564.213,3175.54
564.297,3175.52
564.38,3188.94
564.464,3191.18
564.548,3171.2
564.631,3179.28
564.715,3203.4
564.798,3195.66
564.882,3201.04
564.966,3195.22
565.049,3199.64
565.133,3202.16
565.216,3200.02
565.3,3183.16
565.383,3196.68
565.467,3196.14
565.551,3188.92
565.634,3191.04
565.718,3211.2
565.801,3208.38
565.885,3205.12
565.968,3212.08
566.052,3196.26
566.135,3184.44
566.219,3179.54
566.302,3206.46
566.386,3229.2
566.47,3229.86
566.553,3219.08
566.637,3228.0
566.72,3235.1
566.804,3230.12
566.887,3230.84
566.971,3253.9
567.054,3253.62
567.138,3252.12
567.221,3248.52
567.305,3235.58
567.388,3247.12
567.472,3267.1
567.555,3265.44
567.639,3263.78
567.722,3288.04
567.806,3313.32
567.889,3322.22
567.973,3305.04
568.057,3303.72
568.14,3339.48
568.224,3358.24
568.307,3353.08
568.391,3344.36
568.474,3351.6
568.558,3333.24
568.641,3319.86
568.725,3286.52
568.808,3278.68
568.892,3306.42
568.975,3317.46
569.058,3305.6
569.142,3318.32
569.225,3316.68
569.309,3292.82
569.392,3308.14
569.476,3321.64
569.559,3309.18
569.643,3293.2
569.726,3300.68
569.81,3302.56
569.893,3296.48
569.977,3301.86
570.06,3298.6
570.144,3293.6
570.227,3298.24
570.311,3306.24
570.394,3300.58
570.477,3305.88
570.561,3316.7
570.644,3314.32
570.728,3329.94
570.811,3329.16
570.895,3313.48
570.978,3316.98
571.062,3323.92
571.145,3330.58
571.229,3323.86
571.312,3338.92
571.395,3343.56
571.479,3337.92
571.562,3336.52
571.646,3358.88
571.729,3368.74
571.813,3352.56
571.896,3374.68
571.979,3369.04
572.063,3372.46
572.146,3364.66
572.23,3380.34
572.313,3391.96
572.397,3399.0
572.48,3408.44
572.563,3409.22
572.647,3427.32
572.73,3401.36
572.814,3394.1
572.897,3393.52
572.98,3394.96
573.064,3413.62
573.147,3418.66
573.231,3409.24
573.314,3405.36
573.397,3387.52
573.481,3362.88
573.564,3366.66
573.648,3392.24
573.731,3389.5
573.814,3368.38
573.898,3374.1
573.981,3386.34
574.064,3362.26
574.148,3368.82
574.231,3375.94
574.315,3368.7
574.398,3368.96
574.481,3379.7
574.565,3372.44
574.648,3375.3
574.731,3358.32
574.815,3369.52
574.898,3374.34
574.982,3360.66
575.065,3366.14
575.148,3366.88
575.232,3375.38
575.315,3382.26
575.398,3344.34
575.482,3363.66
575.565,3374.82
575.648,3380.3
575.732,3380.28
575.815,3406.28
575.898,3379.02
575.982,3382.2
576.065,3414.08
576.148,3414.34
576.232,3414.66
576.315,3413.44
576.398,3410.36
576.482,3428.66
576.565,3397.64
576.648,3422.48
576.732,3430.96
576.815,3429.04
576.898,3399.7
576.982,3380.14
577.065,3375.78
577.148,3362.02
577.232,3377.76
577.315,3378.26
577.398,3384.48
577.481,3388.3
577.565,3367.88
577.648,3361.6
577.731,3374.98
577.815,3375.5
577.898,3378.22
577.981,3376.56
578.065,3391.52
578.148,3384.12
578.231,3372.52
578.314,3376.42
578.398,3390.06
578.481,3398.94
578.564,3387.18
578.648,3364.08
578.731,3360.22
578.814,3382.18
578.897,3393.82
578.981,3391.02
579.064,3403.26
579.147,3411.38
579.23,3412.32
579.314,3391.84
579.397,3391.5
579.48,3406.38
579.563,3405.84
579.647,3407.56
579.73,3421.18
579.813,3422.9
579.896,3423.7
579.98,3436.72
580.063,3416.88
580.146,3436.08
580.229,3441.84
580.313,3436.54
580.396,3421.92
580.479,3425.48
580.562,3435.24
580.646,3438.96
580.729,3462.04
580.812,3462.1
580.895,3489.18
580.979,3487.94
581.062,3483.76
581.145,3478.88
581.228,3467.6
581.311,3468.84
581.395,3468.82
581.478,3466.04
581.561,3482.92
581.644,3526.3
581.728,3536.72
581.811,3530.36
581.894,3496.8
581.977,3465.74
582.06,3464.22
582.144,3413.3
582.227,3384.78
582.31,3361.62
582.393,3378.08
582.476,3384.46
582.56,3371.34
582.643,3379.24
582.726,3331.12
582.809,3315.96
582.892,3322.6
582.975,3334.38
583.059,3327.04
583.142,3364.94
583.225,3355.46
583.308,3328.08
583.391,3321.02
583.475,3331.64
583.558,3305.2
583.641,3310.92
583.724,3323.4
583.807,3326.66
583.89,3306.66
583.973,3308.66
584.057,3307.44
584.14,3306.54
584.223,3287.08
584.306,3285.2
584.389,3323.06
584.472,3312.8
584.556,3297.7
584.639,3277.74
584.722,3282.92
584.805,3279.34
584.888,3276.96
584.971,3285.26
585.054,3284.92
585.138,3283.18
585.221,3271.14
585.304,3264.26
585.387,3260.38
585.47,3254.6
585.553,3254.94
585.636,3278.5
585.719,3282.16
585.802,3273.22
585.886,3256.98
585.969,3267.76
586.052,3267.96
586.135,3281.42
586.218,3273.22
586.301,3247.6
586.384,3238.6
586.467,3258.64
586.55,3259.86
586.634,3241.32
586.717,3247.78
586.8,3279.72
586.883,3275.96
586.966,3285.02
587.049,3284.82
587.132,3271.74
587.215,3271.14
587.298,3269.38
587.381,3263.24
587.464,3257.7
587.548,3266.0
587.631,3269.52
587.714,3290.82
587.797,3270.72
587.88,3277.86
587.963,3262.78
588.046,3261.76
588.129,3281.12
588.212,3275.56
588.295,3262.68
588.378,3259.86
588.461,3257.04
588.544,3268.08
588.627,3275.04
588.71,3288.02
588.793,3275.68
588.876,3256.76
588.96,3234.22
589.043,3228.72
589.126,3256.24
589.209,3260.54
589.292,3266.36
589.375,3262.24
589.458,3263.72
589.541,3236.26
589.624,3214.54
589.707,3238.42
589.79,3244.46
589.873,3267.52
589.956,3257.78
590.039,3232.02
590.122,3234.82
590.205,3242.14
590.288,3247.06
590.371,3251.64
590.454,3259.5
590.537,3278.14
590.62,3262.04
590.703,3261.68
590.786,3231.46
590.869,3243.92
590.952,3268.88
591.035,3263.82
591.118,3249.38
591.201,3246.4
591.284,3264.04
591.367,3264.94
591.45,3258.54
591.533,3257.1
591.616,3261.66
591.699,3245.76
591.782,3253.02
591.865,3259.46
591.948,3280.22
592.031,3272.56
592.114,3259.54
592.197,3248.7
592.28,3277.42
592.363,3282.34
592.446,3269.16
592.529,3258.08
592.611,3263.7
592.694,3267.56
592.777,3256.76
592.86,3269.02
592.943,3275.22
593.026,3264.28
593.109,3260.54
593.192,3244.02
593.275,3263.08
593.358,3251.7
593.441,3266.82
593.524,3267.46
593.607,3258.26
593.69,3244.8
593.773,3260.88
593.856,3254.1
593.939,3251.52
594.021,3256.86
594.104,3250.1
594.187,3227.76
594.27,3224.42
594.353,3253.58
594.436,3252.72
594.519,3249.0
594.602,3253.16
594.685,3260.34
594.768,3252.22
594.851,3268.86
594.933,3246.18
595.016,3238.82
595.099,3251.34
595.182,3240.88
595.265,3260.1
595.348,3266.9
595.431,3279.84
595.514,3277.62
595.597,3282.04
595.68,3254.76
595.762,3295.28
595.845,3277.72
595.928,3260.66
596.011,3246.76
596.094,3256.08
596.177,3274.3
596.26,3272.24
596.342,3282.78
596.425,3285.76
596.508,3269.84
596.591,3281.16
596.674,3258.06
596.757,3263.6
596.84,3296.26
596.923,3287.38
597.005,3285.86
597.088,3261.48
597.171,3265.18
597.254,3263.76
597.337,3260.22
597.42,3250.12
597.502,3258.06
597.585,3258.3
597.668,3269.02
597.751,3267.1
597.834,3275.38
597.917,3274.48
597.999,3267.64
598.082,3239.36
598.165,3245.64
598.248,3276.08
598.331,3262.48
598.414,3275.68
598.496,3287.9
598.579,3265.36
598.662,3260.8
598.745,3270.0
598.828,3258.34
598.91,3249.34
598.993,3269.34
599.076,3283.16
599.159,3285.96
599.242,3275.56
599.324,3271.7
599.407,3264.76
599.49,3245.6
599.573,3251.82
599.656,3264.68
599.738,3268.72
599.821,3264.54
599.904,3280.06
599.987,3295.62
600.069,3282.74
600.152,3273.72
600.235,3275.06
600.318,3284.96
600.401,3282.9
600.483,3274.24
600.566,3264.46
600.649,3274.26
600.732,3271.22
600.814,3259.44
600.897,3284.26
600.98,3291.3
601.063,3276.32
601.145,3261.42
601.228,3256.96
601.311,3268.78
601.394,3270.14
601.476,3259.28
601.559,3261.86
601.642,3274.3
601.725,3284.16
601.807,3277.44
601.89,3265.76
601.973,3277.8
602.055,3292.5
602.138,3283.58
602.221,3259.84
602.304,3265.72
602.386,3252.62
602.469,3249.26
602.552,3256.92
602.635,3271.36
602.717,3279.28
602.8,3286.28
602.883,3278.24
602.965,3276.64
603.048,3278.36
603.131,3282.3
603.213,3274.88
603.296,3261.98
603.379,3273.3
603.462,3280.28
603.544,3250.68
603.627,3242.82
603.71,3270.32
603.792,3283.34
603.875,3282.82
603.958,3294.36
604.04,3287.46
604.123,3267.2
604.206,3267.84
604.288,3234.28
604.371,3263.04
604.454,3270.18
604.536,3266.1
604.619,3261.24
604.702,3255.74
604.784,3238.96
604.867,3245.16
604.95,3266.48
605.032,3288.88
605.115,3285.58
605.198,3251.62
605.28,3269.02
605.363,3268.28
605.446,3271.9
605.528,3258.32
605.611,3260.44
605.693,3254.46
605.776,3246.1
605.859,3271.76
605.941,3284.18
606.024,3273.5
606.107,3241.64
606.189,3257.1
606.272,3289.82
606.354,3267.08
606.437,3249.36
606.52,3265.26
606.602,3266.42
606.685,3255.66
606.767,3270.72
606.85,3262.98
606.933,3266.62
607.015,3274.02
607.098,3277.42
607.181,3293.74
607.263,3277.86
607.346,3247.7
607.428,3245.66
607.511,3258.46
607.593,3254.68
607.676,3261.44
607.759,3246.28
607.841,3246.58
607.924,3267.54
608.006,3253.48
608.089,3251.7
608.172,3263.96
608.254,3259.7
608.337,3262.56
608.419,3258.1
608.502,3238.02
608.584,3254.6
608.667,3263.44
608.749,3271.6
608.832,3272.34
608.915,3277.14
608.997,3255.68
609.08,3248.52
609.162,3232.74
609.245,3252.78
609.327,3293.02
609.41,3268.98
609.492,3257.48
609.575,3246.1
609.657,3234.3
609.74,3242.74
609.823,3212.9
609.905,3237.2
609.988,3268.72
610.07,3272.8
610.153,3269.46
610.235,3273.54
610.318,3258.54
610.4,3239.06
610.483,3242.54
610.565,3245.62
610.648,3251.28
610.73,3248.36
610.813,3268.6
610.895,3256.38
610.978,3272.5
611.06,3266.92
611.143,3257.66
611.225,3261.62
611.308,3268.8
611.39,3275.48
611.473,3270.44
611.555,3242.58
611.638,3239.46
611.72,3256.92
611.803,3262.0
611.885,3256.04
611.968,3234.24
612.05,3239.4
612.133,3250.82
612.215,3241.1
612.297,3232.9
612.38,3207.1
612.462,3231.1
612.545,3251.7
612.627,3250.2
612.71,3245.86
612.792,3245.14
612.875,3243.74
612.957,3272.2
613.04,3249.14
613.122,3234.98
613.204,3259.68
613.287,3252.98
613.369,3250.24
613.452,3237.52
613.534,3222.2
613.617,3214.44
613.699,3210.5
613.781,3216.62
613.864,3248.18
613.946,3267.1
614.029,3254.32
614.111,3243.38
614.194,3222.06
614.276,3232.58
614.358,3231.48
614.441,3269.18
614.523,3268.52
614.606,3258.28
614.688,3277.36
614.77,3257.38
614.853,3226.6
614.935,3229.74
615.018,3234.88
615.1,3242.68
615.182,3222.18
615.265,3248.62
615.347,3271.62
615.43,3255.56
615.512,3217.86
615.594,3212.14
615.677,3230.04
615.759,3267.34
615.841,3269.18
615.924,3233.58
616.006,3218.56
616.089,3243.9
616.171,3224.04
616.253,3204.02
616.336,3212.9
616.418,3226.34
616.5,3236.44
616.583,3238.32
616.665,3240.38
616.747,3245.34
616.83,3238.94
616.912,3229.1
616.994,3215.4
617.077,3218.78
617.159,3236.5
617.242,3234.16
617.324,3218.88
617.406,3224.6
617.489,3240.16
617.571,3229.86
617.653,3238.22
617.735,3230.32
617.818,3225.64
617.9,3234.84
617.982,3237.38
618.065,3241.14
618.147,3222.22
618.229,3224.82
618.312,3234.8
618.394,3236.52
618.476,3235.26
618.559,3229.22
618.641,3229.58
618.723,3233.44
618.805,3212.06
618.888,3210.92
618.97,3224.54
619.052,3237.76
619.135,3236.16
619.217,3253.92
619.299,3252.66
619.381,3225.6
619.464,3233.56
619.546,3208.1
619.628,3200.06
619.711,3208.5
619.793,3232.22
619.875,3227.86
619.957,3228.7
620.04,3231.64
620.122,3252.24
620.204,3236.56
620.286,3223.9
620.369,3233.06
620.451,3218.02
620.533,3235.96
620.615,3230.04
620.698,3211.62
620.78,3231.94
620.862,3227.04
620.944,3204.24
621.027,3221.84
621.109,3237.46
621.191,3222.32
621.273,3178.82
621.356,3206.82
621.438,3218.18
621.52,3215.18
621.602,3215.2
621.684,3222.0
621.767,3199.96
621.849,3172.18
621.931,3206.72
622.013,3222.34
622.095,3195.5
622.178,3193.58
622.26,3190.36
622.342,3198.74
622.424,3202.62
622.506,3225.88
622.589,3237.66
622.671,3209.62
622.753,3189.3
622.835,3200.1
622.917,3218.44
623.0,3198.62
623.082,3187.58
623.164,3182.12
623.246,3198.58
623.328,3220.66
623.41,3217.52
623.493,3203.16
623.575,3209.86
623.657,3199.74
623.739,3202.44
623.821,3218.02
623.903,3234.06
623.986,3210.08
624.068,3199.38
624.15,3196.02
624.232,3205.2
624.314,3201.84
624.396,3205.92
624.478,3213.94
624.561,3195.42
624.643,3177.52
624.725,3198.94
624.807,3211.44
624.889,3189.92
624.971,3202.5
625.053,3185.56
625.136,3174.18
625.218,3195.08
625.3,3191.26
625.382,3189.9
625.464,3175.84
625.546,3183.8
625.628,3152.52
625.71,3154.64
625.792,3172.88
625.875,3182.3
625.957,3178.7
626.039,3181.46
626.121,3184.6
626.203,3174.02
626.285,3170.24
626.367,3176.2
626.449,3186.8
626.531,3171.14
626.613,3179.18
626.695,3180.46
626.778,3198.38
626.86,3179.14
626.942,3182.6
627.024,3211.2
627.106,3188.26
627.188,3196.48
627.27,3217.78
627.352,3216.3
627.434,3236.78
627.516,3226.54
627.598,3222.84
627.68,3208.9
627.762,3193.32
627.844,3192.98
627.926,3178.12
628.008,3191.08
628.09,3182.6
628.172,3194.4
628.255,3191.64
628.337,3218.58
628.419,3217.86
628.501,3216.92
628.583,3221.32
628.665,3208.86
628.747,3199.78
628.829,3227.14
628.911,3239.88
628.993,3258.98
629.075,3258.98
629.157,3262.36
629.239,3268.5
629.321,3256.02
629.403,3275.16
629.485,3253.42
629.567,3243.12
629.649,3263.56
629.731,3264.92
629.813,3256.36
629.895,3236.0
629.977,3234.22
630.059,3222.8
630.141,3199.0
630.223,3192.22
630.305,3187.16
630.387,3215.36
630.469,3212.88
630.551,3194.88
630.633,3180.34
630.715,3186.18
630.797,3156.84
630.878,3144.28
630.96,3158.42
631.042,3177.16
631.124,3179.36
631.206,3169.58
631.288,3176.94
631.37,3161.32
631.452,3142.48
631.534,3143.18
631.616,3142.48
631.698,3138.0
631.78,3142.42
631.862,3154.84
631.944,3137.76
632.026,3126.5
632.108,3111.26
632.19,3123.98
632.272,3123.5
632.353,3144.72
632.435,3170.4
632.517,3144.94
632.599,3136.68
632.681,3150.08
632.763,3146.48
632.845,3135.28
632.927,3115.46
633.009,3097.72
633.091,3131.48
633.173,3123.42
633.254,3128.5
633.336,3138.34
633.418,3127.12
633.5,3123.48
633.582,3116.18
633.664,3130.88
633.746,3154.82
633.828,3150.48
633.91,3121.42
633.991,3118.46
634.073,3144.2
634.155,3151.56
634.237,3149.36
634.319,3167.6
634.401,3166.14
