nm,Intensity
526.553,835.54
526.69,835.8
526.827,835.76
526.963,835.76
527.1,835.64
527.237,835.9
527.373,835.84
527.51,836.18
527.647,836.48
527.784,836.02
527.92,836.22
528.057,836.12
528.194,835.56
528.33,835.66
528.467,836.62
528.603,835.94
528.74,836.0
528.877,836.4
529.013,835.74
529.15,835.46
529.286,835.26
529.423,835.36
529.56,835.52
529.696,835.46
529.833,836.56
529.969,835.66
530.106,835.88
530.242,835.4
530.379,835.64
530.515,836.3
530.652,836.14
530.788,835.7
530.925,835.84
531.061,835.62
531.198,836.02
531.334,835.92
531.47,836.04
531.607,835.94
531.743,835.76
531.88,836.12
532.016,841.8
532.152,862.76
532.289,855.24
532.425,838.34
532.562,836.04
532.698,835.98
532.834,836.3
532.971,835.98
533.107,836.18
533.243,835.84
533.38,836.02
533.516,837.66
533.652,847.36
533.789,927.48
533.925,1206.02
534.061,1515.46
534.197,1614.42
534.334,1615.66
534.47,1603.72
534.606,1614.68
534.742,1626.88
534.879,1626.04
535.015,1630.46
535.151,1646.38
535.287,1668.22
535.423,1674.46
535.56,1651.24
535.696,1639.66
535.832,1635.32
535.968,1639.96
536.104,1650.66
536.24,1679.44
536.376,1672.58
536.513,1650.34
536.649,1641.56
536.785,1646.62
536.921,1658.86
537.057,1674.04
537.193,1671.92
537.329,1674.06
537.465,1666.4
537.601,1673.72
537.737,1683.98
537.873,1703.4
538.009,1706.82
538.145,1720.52
538.281,1722.08
538.417,1735.38
538.553,1738.14
538.689,1747.02
538.825,1756.32
538.961,1756.08
539.097,1768.1
539.233,1762.84
539.369,1768.44
539.505,1761.82
539.641,1752.88
539.777,1753.2
539.913,1748.46
540.049,1743.78
540.185,1730.92
540.321,1722.46
540.457,1711.24
540.592,1704.32
540.728,1698.7
540.864,1700.46
541.0,1707.14
541.136,1714.28
541.272,1720.82
541.408,1729.88
541.543,1730.16
541.679,1736.98
541.815,1739.3
541.951,1739.56
542.087,1753.3
542.222,1755.2
542.358,1753.88
542.494,1758.7
542.63,1763.7
542.765,1763.26
542.901,1772.12
543.037,1776.2
543.173,1782.68
543.308,1785.52
543.444,1801.06
543.58,1843.42
543.715,1885.92
543.851,1878.3
543.987,1857.96
544.123,1873.1
544.258,1890.38
544.394,1920.88
544.529,1948.92
544.665,1988.58
544.801,2030.02
544.936,2058.68
545.072,2068.08
545.208,2060.3
545.343,2026.98
545.479,1976.76
545.614,1923.78
545.75,1864.02
545.886,1825.06
546.021,1805.1
546.157,1782.34
546.292,1775.98
546.428,1769.68
546.563,1765.7
546.699,1752.26
546.834,1747.78
546.97,1747.18
547.105,1748.34
547.241,1755.18
547.376,1755.04
547.512,1759.54
547.647,1765.16
547.783,1756.96
547.918,1755.44
548.054,1749.6
548.189,1742.78
548.325,1745.74
548.46,1755.0
548.595,1763.16
548.731,1774.88
548.866,1785.22
549.002,1807.78
549.137,1824.04
549.272,1855.44
549.408,1889.36
549.543,1914.26
549.679,1947.34
549.814,1979.66
549.949,2011.08
550.085,2016.9
550.22,1995.26
550.355,1973.02
550.491,1920.4
550.626,1884.98
550.761,1847.62
550.896,1818.14
551.032,1802.52
551.167,1787.74
551.302,1784.72
551.438,1782.18
551.573,1774.38
551.708,1759.14
551.843,1754.54
551.979,1748.62
552.114,1746.86
552.249,1746.08
552.384,1743.8
552.519,1743.58
552.655,1747.62
552.79,1741.96
552.925,1742.12
553.06,1742.58
553.195,1741.04
553.331,1743.32
553.466,1739.54
553.601,1740.52
553.736,1734.46
553.871,1733.82
554.006,1735.32
554.141,1729.58
554.276,1725.74
554.412,1726.38
554.547,1726.94
554.682,1723.1
554.817,1721.52
554.952,1718.98
555.087,1718.16
555.222,1720.9
555.357,1718.54
555.492,1720.14
555.627,1716.7
555.762,1730.08
555.897,1735.24
556.032,1783.28
556.167,1802.14
556.302,1766.9
556.437,1735.38
556.572,1726.22
556.707,1729.12
556.842,1737.84
556.977,1760.86
557.112,1792.26
557.247,1761.78
557.382,1731.96
557.517,1713.26
557.652,1709.54
557.787,1698.74
557.922,1690.54
558.057,1695.44
558.192,1689.76
558.327,1690.62
558.462,1686.34
558.596,1682.66
558.731,1689.48
558.866,1697.52
559.001,1709.36
559.136,1709.74
559.271,1704.7
559.406,1710.16
559.54,1705.34
559.675,1698.56
559.81,1704.82
559.945,1714.92
560.08,1724.4
560.215,1732.32
560.349,1721.42
560.484,1716.22
560.619,1712.56
560.754,1707.72
560.889,1701.94
561.023,1709.38
561.158,1724.06
561.293,1730.44
561.428,1712.86
561.562,1696.48
561.697,1696.56
561.832,1691.44
561.966,1709.92
562.101,1721.92
562.236,1700.24
562.371,1689.34
562.505,1688.7
562.64,1694.62
562.775,1692.5
562.909,1693.44
563.044,1705.76
563.179,1723.2
563.313,1724.48
563.448,1726.44
563.583,1727.14
563.717,1725.06
563.852,1717.6
563.986,1716.6
564.121,1722.56
564.256,1722.42
564.39,1719.28
564.525,1721.38
564.659,1728.68
564.794,1724.86
564.929,1726.28
565.063,1730.02
565.198,1729.34
565.332,1731.32
565.467,1733.46
565.601,1738.2
565.736,1733.02
565.87,1732.4
566.005,1732.04
566.139,1734.22
566.274,1733.64
566.408,1732.12
566.543,1741.42
566.677,1751.3
566.812,1769.02
566.946,1777.86
567.081,1768.7
567.215,1751.88
567.35,1754.22
567.484,1757.4
567.619,1744.66
567.753,1736.98
567.888,1736.84
568.022,1727.6
568.156,1720.8
568.291,1722.74
568.425,1722.2
568.56,1720.24
568.694,1722.28
568.828,1732.46
568.963,1742.86
569.097,1761.12
569.231,1751.38
569.366,1747.44
569.5,1749.96
569.635,1773.48
569.769,1798.02
569.903,1833.16
570.038,1854.66
570.172,1859.84
570.306,1858.14
570.441,1830.88
570.575,1798.9
570.709,1774.66
570.843,1763.9
570.978,1753.8
571.112,1765.38
571.246,1794.18
571.38,1792.86
571.515,1775.82
571.649,1766.38
571.783,1744.98
571.917,1751.24
572.052,1758.92
572.186,1753.78
572.32,1761.1
572.454,1766.54
572.589,1790.56
572.723,1814.62
572.857,1787.56
572.991,1765.32
573.125,1745.88
573.26,1751.46
573.394,1755.4
573.528,1765.4
573.662,1781.82
573.796,1780.06
573.93,1769.54
574.064,1772.02
574.199,1774.38
574.333,1790.54
574.467,1800.52
574.601,1816.92
574.735,1856.5
574.869,1889.16
575.003,1900.64
575.137,1871.78
575.271,1823.16
575.406,1792.44
575.54,1769.52
575.674,1765.94
575.808,1758.44
575.942,1758.56
576.076,1770.04
576.21,1775.4
576.344,1773.02
576.478,1776.44
576.612,1781.54
576.746,1795.4
576.88,1818.22
577.014,1837.74
577.148,1812.62
577.282,1778.56
577.416,1756.36
577.55,1746.36
577.684,1746.96
577.818,1745.14
577.952,1749.52
578.086,1748.78
578.22,1743.66
578.354,1744.56
578.488,1745.9
578.622,1751.3
578.756,1758.3
578.89,1761.7
579.023,1768.8
579.157,1777.92
579.291,1764.72
579.425,1749.74
579.559,1741.64
579.693,1746.56
579.827,1745.36
579.961,1744.58
580.095,1749.62
580.228,1748.98
580.362,1745.88
580.496,1740.98
580.63,1743.42
580.764,1750.32
580.898,1758.2
581.032,1775.1
581.165,1819.58
581.299,1909.36
581.433,2085.06
581.567,2304.54
581.701,2298.1
581.834,2077.88
581.968,1901.56
582.102,1829.52
582.236,1794.52
582.37,1782.68
582.503,1775.38
582.637,1771.0
582.771,1765.78
582.905,1763.7
583.038,1763.46
583.172,1759.66
583.306,1757.68
583.44,1761.08
583.573,1754.18
583.707,1766.66
583.841,1767.32
583.974,1769.92
584.108,1781.36
584.242,1779.34
584.375,1782.82
584.509,1770.4
584.643,1767.98
584.777,1763.62
584.91,1768.4
585.044,1771.26
585.177,1768.9
585.311,1776.06
585.445,1774.02
585.578,1766.82
585.712,1765.66
585.846,1762.64
585.979,1766.98
586.113,1760.64
586.247,1766.6
586.38,1765.2
586.514,1767.74
586.647,1772.6
586.781,1770.2
586.914,1773.02
587.048,1772.04
587.182,1775.64
587.315,1771.54
587.449,1772.24
587.582,1768.82
587.716,1764.56
587.849,1760.1
587.983,1764.24
588.116,1762.16
588.25,1757.64
588.384,1759.38
588.517,1755.56
588.651,1746.86
588.784,1750.44
588.918,1741.44
589.051,1741.92
589.185,1742.26
589.318,1742.38
589.452,1736.82
589.585,1739.84
589.718,1737.08
589.852,1740.64
589.985,1738.94
590.119,1740.04
590.252,1742.3
590.386,1748.84
590.519,1743.32
590.653,1738.38
590.786,1741.02
590.919,1739.34
591.053,1740.6
591.186,1740.7
591.32,1741.74
591.453,1746.5
591.586,1745.04
591.72,1736.96
591.853,1734.3
591.987,1733.06
592.12,1728.44
592.253,1728.2
592.387,1730.8
592.52,1730.92
592.653,1722.84
592.787,1729.62
592.92,1720.24
593.053,1718.54
593.187,1714.4
593.32,1718.46
593.453,1720.14
593.587,1714.22
593.72,1715.48
593.853,1714.98
593.987,1708.36
594.12,1716.3
594.253,1708.96
594.386,1710.28
594.52,1714.44
594.653,1717.78
594.786,1712.58
594.919,1716.44
595.053,1712.6
595.186,1719.68
595.319,1720.94
595.452,1720.04
595.586,1717.82
595.719,1716.64
595.852,1715.5
595.985,1718.28
596.119,1715.46
596.252,1714.22
596.385,1707.38
596.518,1708.62
596.651,1708.62
596.785,1711.96
596.918,1702.3
597.051,1708.74
597.184,1710.08
597.317,1706.18
597.45,1703.16
597.584,1699.6
597.717,1706.1
597.85,1700.26
597.983,1702.3
598.116,1708.96
598.249,1707.38
598.382,1705.38
598.516,1708.1
598.649,1708.46
598.782,1710.94
598.915,1703.88
599.048,1701.0
599.181,1704.9
599.314,1705.72
599.447,1706.78
599.58,1704.58
599.713,1702.16
599.847,1698.66
599.98,1699.86
600.113,1700.38
600.246,1694.22
600.379,1692.0
600.512,1688.18
600.645,1688.72
600.778,1688.74
600.911,1686.78
601.044,1690.58
601.177,1686.98
601.31,1681.7
601.443,1682.4
601.576,1677.9
601.709,1680.88
601.842,1677.68
601.975,1678.92
602.108,1678.4
602.241,1682.52
602.374,1679.7
602.507,1680.2
602.64,1676.96
602.773,1678.88
602.906,1681.78
603.039,1685.0
603.172,1684.84
603.305,1682.0
603.438,1687.52
603.571,1683.6
603.703,1689.46
603.836,1687.02
603.969,1685.86
604.102,1683.9
604.235,1690.92
604.368,1682.78
604.501,1678.26
604.634,1675.48
604.767,1682.96
604.9,1673.3
605.033,1671.82
605.165,1671.82
605.298,1665.34
605.431,1661.54
605.564,1655.96
605.697,1656.36
605.83,1657.46
605.963,1647.36
606.095,1656.96
606.228,1653.54
606.361,1653.66
606.494,1650.74
606.627,1649.58
606.76,1649.28
606.892,1647.8
607.025,1650.98
607.158,1650.42
607.291,1648.4
607.424,1649.64
607.556,1650.84
607.689,1651.96
607.822,1653.6
607.955,1654.6
608.088,1655.94
608.22,1655.46
608.353,1654.56
608.486,1652.58
608.619,1648.4
608.751,1651.16
608.884,1656.06
609.017,1656.84
609.15,1660.14
609.282,1656.12
609.415,1654.74
609.548,1649.52
609.681,1656.26
609.813,1652.7
609.946,1652.1
610.079,1649.44
610.211,1651.14
610.344,1648.18
610.477,1645.72
610.609,1649.44
610.742,1656.08
610.875,1656.4
611.007,1657.08
611.14,1657.34
611.273,1657.86
611.405,1658.62
611.538,1663.68
611.671,1671.18
611.803,1664.68
611.936,1666.88
612.069,1669.4
612.201,1669.48
612.334,1671.44
612.467,1673.1
612.599,1676.8
612.732,1681.68
612.864,1686.92
612.997,1684.16
613.13,1688.84
613.262,1687.36
613.395,1689.56
613.527,1685.7
613.66,1688.3
613.793,1688.62
613.925,1691.52
614.058,1688.78
614.19,1687.26
614.323,1692.14
614.456,1687.56
614.588,1682.28
614.721,1682.12
614.853,1680.98
614.986,1677.26
615.118,1677.02
615.251,1678.92
615.383,1676.98
615.516,1668.96
615.648,1672.82
615.781,1671.8
615.913,1673.66
616.046,1677.24
616.178,1675.24
616.311,1673.44
616.443,1669.9
616.576,1665.34
616.708,1667.3
616.841,1672.74
616.973,1676.7
617.106,1669.22
617.238,1679.02
617.371,1671.18
617.503,1671.22
617.636,1670.76
617.768,1670.46
617.901,1671.02
618.033,1669.12
618.166,1670.78
618.298,1672.74
618.43,1674.58
618.563,1678.74
618.695,1669.32
618.828,1677.68
618.96,1674.9
619.093,1676.98
619.225,1681.28
619.357,1679.84
619.49,1683.98
619.622,1688.8
619.755,1687.16
619.887,1682.46
620.019,1689.8
620.152,1686.0
620.284,1682.5
620.417,1684.2
620.549,1685.02
620.681,1683.84
620.814,1681.64
620.946,1685.56
621.078,1685.52
621.211,1685.54
621.343,1684.1
621.475,1687.22
621.608,1686.12
621.74,1695.02
621.872,1692.62
622.005,1699.16
622.137,1702.34
622.269,1711.04
622.402,1715.96
622.534,1708.86
622.666,1704.3
622.799,1706.22
622.931,1704.92
623.063,1698.24
623.195,1699.14
623.328,1696.9
623.46,1701.92
623.592,1698.66
623.725,1694.64
623.857,1700.8
623.989,1695.42
624.121,1700.12
624.254,1694.32
624.386,1696.7
624.518,1698.46
624.65,1698.5
624.783,1692.12
624.915,1695.48
625.047,1693.54
625.179,1691.64
625.312,1695.0
625.444,1696.1
625.576,1696.98
625.708,1687.12
625.841,1690.94
625.973,1696.68
626.105,1694.22
626.237,1693.52
626.369,1701.28
626.502,1721.16
626.634,1750.4
626.766,1797.02
626.898,1858.48
627.03,1865.26
627.163,1819.34
627.295,1776.68
627.427,1760.5
627.559,1751.82
627.691,1786.92
627.823,1832.48
627.956,1909.24
628.088,1938.74
628.22,1934.18
628.352,1954.16
628.484,2006.26
628.616,2054.76
628.748,2060.7
628.881,2017.4
629.013,1970.16
629.145,1944.66
629.277,1939.98
629.409,1961.56
629.541,1983.12
629.673,1960.16
629.805,1904.8
629.937,1879.04
630.07,1876.8
630.202,1884.0
630.334,1889.04
630.466,1869.62
630.598,1838.48
630.73,1803.14
630.862,1776.86
630.994,1774.46
631.126,1792.82
631.258,1835.6
631.39,1881.54
631.522,1870.7
631.655,1860.64
631.787,1853.5
631.919,1837.3
632.051,1797.2
632.183,1766.06
632.315,1736.9
632.447,1722.54
632.579,1706.16
632.711,1702.32
632.843,1696.9
632.975,1688.5
633.107,1686.9
633.239,1682.28
633.371,1674.78
633.503,1673.3
633.635,1674.18
633.767,1665.24
633.899,1665.88
634.031,1657.3
634.163,1659.9
634.295,1664.04
634.427,1652.3
634.559,1653.44
634.691,1650.68
634.823,1652.68
634.955,1647.26
635.087,1648.6
635.219,1645.48
635.351,1649.16
635.483,1647.6
635.615,1648.44
635.747,1646.7
635.879,1653.2
636.011,1650.92
636.143,1653.98
636.275,1651.72
636.406,1659.04
636.538,1652.98
636.67,1651.52
636.802,1653.38
636.934,1650.54
637.066,1653.4
637.198,1651.66
637.33,1653.62
637.462,1650.98
637.594,1655.18
637.726,1655.06
637.858,1649.68
637.989,1653.4
638.121,1650.06
638.253,1651.14
638.385,1651.64
638.517,1649.42
638.649,1647.3
638.781,1647.44
638.913,1651.44
639.045,1646.24
639.176,1644.2
639.308,1649.72
639.44,1645.96
639.572,1641.04
639.704,1639.4
639.836,1642.4
639.968,1642.58
640.1,1638.74
640.231,1636.7
640.363,1641.88
640.495,1639.32
640.627,1645.78
640.759,1644.28
640.891,1640.72
641.022,1646.46
641.154,1650.66
641.286,1647.06
641.418,1639.88
641.55,1639.8
641.682,1634.82
641.813,1634.02
641.945,1631.24
642.077,1633.38
642.209,1630.96
642.341,1628.46
642.472,1624.36
642.604,1622.96
642.736,1626.2
642.868,1621.38
643.0,1622.2
643.131,1616.96
643.263,1611.18
643.395,1608.64
643.527,1606.96
643.658,1605.24
643.79,1603.64
643.922,1602.24
644.054,1599.58
644.186,1596.32
644.317,1595.88
644.449,1596.3
644.581,1593.06
644.713,1587.98
644.844,1594.48
644.976,1593.18
645.108,1593.02
645.24,1591.02
645.371,1589.94
645.503,1587.44
645.635,1592.42
645.767,1587.36
645.898,1594.82
646.03,1591.9
646.162,1596.3
646.293,1589.3
646.425,1588.82
646.557,1592.7
646.689,1596.46
646.82,1594.1
646.952,1592.62
647.084,1597.08
647.215,1592.98
647.347,1592.06
647.479,1591.38
647.61,1596.44
647.742,1585.82
647.874,1585.82
648.006,1583.76
648.137,1585.92
648.269,1582.22
648.401,1579.92
648.532,1576.42
648.664,1573.9
648.796,1572.26
648.927,1577.52
649.059,1566.56
649.191,1564.08
649.322,1560.4
649.454,1560.06
649.586,1562.98
649.717,1555.72
649.849,1560.58
649.981,1555.74
650.112,1558.84
650.244,1552.94
650.375,1553.9
650.507,1553.04
650.639,1549.88
650.77,1547.48
650.902,1548.38
651.034,1546.18
651.165,1547.3
651.297,1549.22
651.429,1549.62
651.56,1543.54
651.692,1543.28
651.823,1548.04
651.955,1542.84
652.087,1538.84
652.218,1541.12
652.35,1542.58
652.481,1537.9
652.613,1537.08
652.745,1540.5
652.876,1535.84
653.008,1535.86
653.139,1535.36
653.271,1536.52
653.403,1536.12
653.534,1531.88
653.666,1531.2
653.797,1533.24
653.929,1532.08
654.061,1531.78
654.192,1527.16
654.324,1532.14
654.455,1526.24
654.587,1526.7
654.718,1523.96
654.85,1519.92
654.982,1520.94
655.113,1521.9
655.245,1519.74
655.376,1522.14
655.508,1524.04
655.639,1518.94
655.771,1521.42
655.902,1519.06
656.034,1517.18
656.166,1520.92
656.297,1513.08
656.429,1513.8
656.56,1517.78
656.692,1511.14
656.823,1518.02
656.955,1520.0
657.086,1518.88
657.218,1519.2
657.349,1517.2
657.481,1518.3
657.612,1518.02
657.744,1518.18
657.875,1516.86
658.007,1512.42
658.138,1516.62
658.27,1516.06
658.401,1521.32
658.533,1521.14
658.664,1519.6
658.796,1514.32
658.927,1513.98
659.059,1513.76
659.19,1513.68
659.322,1518.12
659.453,1516.1
659.585,1512.64
659.716,1510.18
659.848,1511.22
659.979,1512.94
660.111,1507.08
660.242,1510.96
660.374,1506.9
660.505,1502.18
660.637,1504.32
660.768,1505.38
660.9,1500.6
661.031,1496.3
661.163,1500.16
661.294,1500.78
661.426,1497.48
661.557,1493.82
661.689,1496.38
661.82,1498.72
661.951,1492.5
662.083,1492.54
662.214,1491.62
662.346,1491.22
662.477,1487.54
662.609,1494.64
662.74,1493.92
662.872,1485.14
663.003,1488.36
663.135,1488.32
