nm,Intensity
526.508,830.9
526.645,829.7
526.782,830.0
526.919,829.3
527.055,830.0
527.192,831.2
527.329,829.9
527.465,829.4
527.602,829.7
527.739,830.5
527.875,830.2
528.012,830.4
528.149,829.5
528.285,829.7
528.422,829.7
528.558,829.8
528.695,830.9
528.832,829.1
528.968,830.5
529.105,829.7
529.241,829.6
529.378,830.7
529.514,830.5
529.651,830.4
529.787,829.7
529.924,829.4
530.061,830.5
530.197,829.2
530.334,829.4
530.47,831.5
530.606,828.6
530.743,829.6
530.879,830.1
531.016,829.9
531.152,829.1
531.289,828.9
531.425,829.7
531.562,830.1
531.698,831.4
531.834,830.3
531.971,835.6
532.107,873.6
532.244,882.6
532.38,841.8
532.516,830.8
532.653,830.5
532.789,831.2
532.925,830.8
533.062,829.7
533.198,830.7
533.334,829.4
533.471,829.6
533.607,830.9
533.743,835.1
533.879,861.1
534.016,897.4
534.152,905.2
534.288,902.0
534.424,894.8
534.561,893.1
534.697,905.0
534.833,916.8
534.969,924.8
535.106,933.0
535.242,933.0
535.378,921.2
535.514,895.9
535.65,878.0
535.786,870.1
535.923,865.3
536.059,858.5
536.195,857.6
536.331,855.5
536.467,855.6
536.603,859.7
536.739,864.1
536.876,872.8
537.012,887.5
537.148,890.0
537.284,883.2
537.42,876.3
537.556,865.6
537.692,861.3
537.828,855.5
537.964,855.3
538.1,852.9
538.236,852.5
538.372,854.0
538.508,851.3
538.644,854.4
538.78,852.4
538.916,852.1
539.052,853.3
539.188,862.0
539.324,868.2
539.46,864.1
539.596,861.8
539.732,859.0
539.868,853.7
540.004,849.2
540.14,847.0
540.275,846.9
540.411,848.0
540.547,842.9
540.683,848.1
540.819,844.7
540.955,845.1
541.091,849.2
541.227,852.5
541.362,858.9
541.498,856.9
541.634,852.1
541.77,848.9
541.906,846.3
542.041,842.1
542.177,844.6
542.313,842.9
542.449,842.9
542.585,840.2
542.72,842.0
542.856,844.4
542.992,846.0
543.128,846.3
543.263,853.0
543.399,860.1
543.535,891.9
543.67,938.7
543.806,930.8
543.942,890.4
544.078,866.3
544.213,858.5
544.349,853.9
544.485,853.3
544.62,849.5
544.756,849.9
544.892,850.0
545.027,851.7
545.163,858.5
545.298,873.0
545.434,875.2
545.57,870.4
545.705,857.4
545.841,849.0
545.976,846.7
546.112,844.1
546.248,843.5
546.383,844.1
546.519,844.6
546.654,840.5
546.79,842.1
546.925,842.3
547.061,845.4
547.196,844.8
547.332,856.0
547.467,861.1
547.603,864.1
547.738,859.5
547.874,852.7
548.009,846.8
548.145,844.5
548.28,843.7
548.416,840.9
548.551,841.9
548.686,840.6
548.822,840.1
548.957,840.5
549.093,838.3
549.228,836.8
549.363,838.4
549.499,838.4
549.634,836.7
549.77,835.4
549.905,836.2
550.04,838.3
550.176,836.8
550.311,836.6
550.446,836.7
550.582,838.8
550.717,837.9
550.852,838.1
550.988,838.6
551.123,836.4
551.258,836.7
551.394,837.1
551.529,837.4
551.664,836.5
551.799,837.4
551.935,837.5
552.07,836.9
552.205,837.8
552.34,837.2
552.476,838.3
552.611,838.0
552.746,836.7
552.881,835.9
553.016,837.4
553.152,838.6
553.287,838.9
553.422,838.5
553.557,837.6
553.692,837.7
553.827,838.0
553.963,840.0
554.098,839.7
554.233,838.7
554.368,838.3
554.503,839.0
554.638,841.7
554.773,844.7
554.908,842.9
555.043,845.4
555.179,844.4
555.314,843.8
555.449,849.0
555.584,855.1
555.719,863.8
555.854,888.8
555.989,958.9
556.124,1052.9
556.259,989.1
556.394,904.1
556.529,884.0
556.664,884.8
556.799,895.0
556.934,917.2
557.069,961.8
557.204,964.4
557.339,904.5
557.474,877.6
557.609,865.1
557.744,859.1
557.879,854.0
558.014,850.4
558.149,851.4
558.284,850.1
558.419,848.3
558.553,847.7
558.688,851.7
558.823,858.3
558.958,864.5
559.093,855.5
559.228,850.0
559.363,848.8
559.498,848.9
559.632,846.6
559.767,846.7
559.902,850.2
560.037,856.2
560.172,868.9
560.307,871.2
560.441,862.3
560.576,854.4
560.711,854.0
560.846,857.8
560.981,867.1
561.115,901.6
561.25,943.3
561.385,914.5
561.52,870.5
561.654,857.8
561.789,860.2
561.924,874.7
562.059,889.9
562.193,873.0
562.328,862.4
562.463,856.5
562.598,855.1
562.732,855.5
562.867,859.2
563.002,863.8
563.136,876.6
563.271,887.0
563.406,883.4
563.54,873.6
563.675,864.9
563.81,854.8
563.944,852.0
564.079,849.5
564.213,850.9
564.348,849.2
564.483,847.9
564.617,847.1
564.752,849.3
564.887,848.5
565.021,853.5
565.156,853.5
565.29,856.4
565.425,859.9
565.559,854.9
565.694,852.7
565.828,852.2
565.963,850.8
566.098,849.5
566.232,852.4
566.367,852.6
566.501,860.8
566.636,874.2
566.77,906.1
566.905,956.1
567.039,959.7
567.174,937.0
567.308,939.5
567.443,955.5
567.577,936.4
567.711,890.3
567.846,865.2
567.98,854.9
568.115,850.8
568.249,852.5
568.384,854.5
568.518,858.1
568.652,861.7
568.787,860.7
568.921,876.7
569.056,896.5
569.19,898.7
569.324,878.9
569.459,863.7
569.593,856.1
569.727,854.0
569.862,856.2
569.996,859.6
570.131,864.9
570.265,872.1
570.399,868.2
570.534,856.6
570.668,855.3
570.802,853.7
570.936,853.9
571.071,853.4
571.205,859.1
571.339,860.1
571.474,865.6
571.608,871.6
571.742,872.3
571.876,876.8
572.011,873.7
572.145,869.6
572.279,875.1
572.413,894.7
572.548,931.4
572.682,990.5
572.816,979.2
572.95,917.9
573.084,888.6
573.219,875.7
573.353,873.0
573.487,886.3
573.621,908.6
573.755,915.7
573.889,893.8
574.024,877.7
574.158,874.3
574.292,871.0
574.426,862.2
574.56,852.5
574.694,849.5
574.828,850.8
574.963,848.9
575.097,849.0
575.231,845.0
575.365,847.9
575.499,846.3
575.633,849.6
575.767,851.3
575.901,855.4
576.035,877.7
576.169,913.4
576.303,921.0
576.437,909.3
576.571,919.5
576.706,948.8
576.84,998.0
576.974,1048.5
577.108,1034.3
577.242,965.0
577.376,909.6
577.51,874.9
577.644,862.0
577.778,855.9
577.912,853.7
578.046,849.3
578.179,847.4
578.313,845.7
578.447,846.1
578.581,846.8
578.715,846.2
578.849,844.4
578.983,845.9
579.117,845.2
579.251,843.8
579.385,843.9
579.519,844.7
579.653,843.9
579.787,843.8
579.921,844.7
580.054,843.3
580.188,843.3
580.322,844.6
580.456,843.2
580.59,842.1
580.724,843.0
580.858,842.4
580.991,844.0
581.125,843.8
581.259,843.8
581.393,841.9
581.527,842.4
581.661,844.3
581.794,844.3
581.928,842.6
582.062,844.1
582.196,844.0
582.33,842.9
582.463,845.0
582.597,841.8
582.731,845.0
582.865,843.1
582.998,842.8
583.132,844.8
583.266,844.4
583.4,844.3
583.533,843.4
583.667,845.1
583.801,844.0
583.935,843.1
584.068,842.4
584.202,844.0
584.336,842.9
584.469,843.2
584.603,845.9
584.737,844.9
584.87,844.6
585.004,843.1
585.138,844.8
585.271,844.9
585.405,843.6
585.539,843.4
585.672,841.6
585.806,842.2
585.94,844.1
586.073,842.7
586.207,841.8
586.34,842.0
586.474,843.4
586.608,843.1
586.741,842.5
586.875,843.6
587.008,841.4
587.142,841.4
587.276,841.6
587.409,841.7
587.543,841.3
587.676,843.2
587.81,841.9
587.943,842.8
588.077,840.1
588.21,840.1
588.344,842.8
588.478,840.6
588.611,840.3
588.745,841.8
588.878,842.6
589.012,841.8
589.145,843.1
589.279,842.8
589.412,842.9
589.546,841.8
589.679,842.8
589.812,840.4
589.946,841.4
590.079,843.7
590.213,841.5
590.346,839.2
590.48,841.7
590.613,840.4
590.747,840.4
590.88,842.9
591.013,843.1
591.147,841.3
591.28,842.8
591.414,841.0
591.547,842.4
591.68,842.2
591.814,843.9
591.947,841.1
592.081,843.2
592.214,840.5
592.347,840.7
592.481,844.1
592.614,840.7
592.747,843.5
592.881,841.4
593.014,841.3
593.147,841.6
593.281,842.5
593.414,842.6
593.547,841.7
593.681,840.6
593.814,842.5
593.947,841.4
594.081,841.9
594.214,842.6
594.347,840.6
594.48,841.3
594.614,840.0
594.747,843.8
594.88,840.6
595.014,840.4
595.147,840.9
595.28,841.7
595.413,841.2
595.547,842.4
595.68,841.1
595.813,840.3
595.946,841.2
596.079,838.6
596.213,842.1
596.346,841.8
596.479,839.3
596.612,842.6
596.745,841.9
596.879,841.1
597.012,843.1
597.145,841.9
597.278,844.2
597.411,841.7
597.545,842.5
597.678,843.7
597.811,840.7
597.944,842.0
598.077,841.2
598.21,841.8
598.343,841.2
598.476,840.5
598.61,842.3
598.743,842.4
598.876,842.6
599.009,842.0
599.142,842.9
599.275,843.4
599.408,843.4
599.541,842.3
599.674,842.2
599.807,843.6
599.941,842.0
600.074,842.8
600.207,843.1
600.34,842.2
600.473,842.0
600.606,843.1
600.739,842.9
600.872,842.3
601.005,843.6
601.138,840.8
601.271,841.5
601.404,839.8
601.537,842.3
601.67,841.2
601.803,841.4
601.936,841.8
602.069,843.1
602.202,841.9
602.335,843.1
602.468,842.1
602.601,842.4
602.734,844.0
602.867,840.4
603.0,840.3
603.133,842.4
603.266,844.3
603.399,844.0
603.532,841.9
603.664,844.7
603.797,841.3
603.93,844.5
604.063,843.7
604.196,844.4
604.329,843.7
604.462,842.8
604.595,843.6
604.728,843.9
604.861,844.5
604.994,844.1
605.126,845.9
605.259,844.1
605.392,841.9
605.525,844.6
605.658,843.9
605.791,843.4
605.924,844.8
606.056,844.1
606.189,841.9
606.322,846.6
606.455,844.9
606.588,844.2
606.721,847.1
606.853,845.5
606.986,843.6
607.119,844.3
607.252,846.9
607.385,845.6
607.517,844.0
607.65,847.3
607.783,844.7
607.916,846.4
608.049,844.8
608.181,845.5
608.314,844.7
608.447,846.2
608.58,843.9
608.712,844.6
608.845,844.7
608.978,844.8
609.111,843.7
609.243,843.0
609.376,843.4
609.509,844.4
609.641,843.9
609.774,844.6
609.907,845.2
610.04,842.9
610.172,844.3
610.305,843.8
610.438,845.6
610.57,844.4
610.703,843.6
610.836,845.0
610.968,844.8
611.101,843.4
611.234,845.4
611.366,843.4
611.499,844.5
611.632,846.0
611.764,845.8
611.897,844.4
612.03,845.6
612.162,845.9
612.295,844.1
612.428,843.9
612.56,845.7
612.693,844.4
612.825,842.5
612.958,845.3
613.091,844.8
613.223,841.5
613.356,844.0
613.488,844.0
613.621,846.9
613.754,843.8
613.886,844.8
614.019,844.9
614.151,845.8
614.284,845.3
614.416,845.5
614.549,846.2
614.681,843.7
614.814,845.8
614.947,846.6
615.079,844.1
615.212,846.1
615.344,846.1
615.477,845.7
615.609,846.2
615.742,847.4
615.874,846.2
616.007,846.2
616.139,846.5
616.272,846.0
616.404,848.5
616.537,849.1
616.669,846.7
616.802,848.2
616.934,848.8
617.067,849.3
617.199,851.2
617.332,851.2
617.464,850.5
617.596,850.8
617.729,852.7
617.861,851.4
617.994,848.8
618.126,852.3
618.259,851.6
618.391,852.1
618.524,852.9
618.656,849.7
618.788,849.6
618.921,850.9
619.053,851.2
619.186,854.0
619.318,856.1
619.45,859.6
619.583,858.5
619.715,860.4
619.848,861.4
619.98,859.9
620.112,861.0
620.245,859.3
620.377,857.8
620.509,860.7
620.642,857.3
620.774,859.7
620.907,861.2
621.039,858.2
621.171,860.6
621.304,862.1
621.436,864.4
621.568,869.7
621.701,875.3
621.833,880.0
621.965,889.0
622.097,892.6
622.23,902.2
622.362,920.4
622.494,914.7
622.627,901.0
622.759,890.0
622.891,881.7
623.024,881.0
623.156,873.1
623.288,872.7
623.42,869.2
623.553,864.6
623.685,862.2
623.817,858.9
623.949,858.9
624.082,856.4
624.214,853.7
624.346,854.6
624.479,853.2
624.611,854.8
624.743,852.9
624.875,855.7
625.007,857.1
625.14,858.3
625.272,859.8
625.404,860.2
625.536,861.5
625.669,864.5
625.801,873.9
625.933,873.6
626.065,880.6
626.197,887.1
626.33,899.9
626.462,928.3
626.594,975.3
626.726,1077.3
626.858,1201.6
626.99,1251.0
627.123,1191.5
627.255,1092.6
627.387,1031.7
627.519,1011.0
627.651,1029.6
627.783,1123.9
627.916,1310.4
628.048,1443.8
628.18,1465.1
628.312,1480.4
628.444,1570.8
628.576,1672.5
628.708,1710.6
628.84,1668.3
628.973,1564.5
629.105,1478.0
629.237,1437.2
629.369,1453.3
629.501,1494.6
629.633,1455.7
629.765,1384.9
629.897,1319.3
630.029,1295.4
630.161,1311.7
630.294,1321.0
630.426,1295.5
630.558,1226.9
630.69,1141.7
630.822,1090.1
630.954,1067.3
631.086,1096.9
631.218,1187.7
631.35,1293.0
631.482,1338.5
631.614,1350.1
631.746,1368.6
631.878,1323.9
632.01,1246.8
632.142,1153.8
632.274,1071.4
632.406,997.3
632.538,955.9
632.67,924.8
632.802,904.4
632.934,894.3
633.066,882.3
633.198,878.0
633.33,873.7
633.462,869.4
633.594,866.2
633.726,864.1
633.858,862.7
633.99,858.7
634.122,856.7
634.254,856.2
634.386,853.1
634.518,851.6
634.65,850.4
634.782,850.9
634.914,849.5
635.046,849.3
635.178,848.0
635.31,850.5
635.442,848.2
635.574,847.1
635.706,848.2
635.838,848.6
635.97,847.3
636.102,847.7
636.234,849.1
636.365,846.6
636.497,847.7
636.629,846.5
636.761,845.7
636.893,847.1
637.025,846.6
637.157,845.7
637.289,846.3
637.421,845.8
637.553,845.3
637.685,842.3
637.816,846.6
637.948,845.7
638.08,847.5
638.212,845.5
638.344,845.7
638.476,847.2
638.608,846.5
638.74,845.8
638.871,844.8
639.003,846.8
639.135,846.7
639.267,848.4
639.399,847.6
639.531,846.4
639.662,847.4
639.794,847.2
639.926,848.0
640.058,845.4
640.19,845.5
640.322,846.5
640.453,846.7
640.585,847.0
640.717,847.9
640.849,847.5
640.981,847.1
641.113,846.7
641.244,844.7
641.376,846.0
641.508,849.5
641.64,848.3
641.772,845.8
641.903,847.5
642.035,847.5
642.167,845.1
642.299,844.9
642.43,843.7
642.562,844.1
642.694,843.1
642.826,842.7
642.958,841.4
643.089,841.2
643.221,841.5
643.353,841.7
643.485,842.2
643.616,840.4
643.748,842.4
643.88,843.3
644.012,839.7
644.143,841.9
644.275,841.4
644.407,841.4
644.538,841.8
644.67,841.7
644.802,842.0
644.934,839.8
645.065,841.9
645.197,840.1
645.329,841.5
645.461,840.3
645.592,839.3
645.724,840.7
645.856,838.5
645.987,840.1
646.119,839.0
646.251,839.2
646.382,839.6
646.514,839.2
646.646,840.1
646.777,838.4
646.909,838.9
647.041,841.4
647.172,839.5
647.304,840.5
647.436,842.7
647.567,836.4
647.699,839.4
647.831,839.7
647.962,839.4
648.094,838.1
648.226,839.1
648.357,838.6
648.489,840.0
648.621,841.0
648.752,838.2
648.884,838.5
649.016,841.0
649.147,837.2
649.279,840.4
649.411,840.8
649.542,836.8
649.674,839.2
649.805,838.9
649.937,838.8
650.069,840.1
650.2,838.0
650.332,840.3
650.463,838.1
650.595,839.4
650.727,840.4
650.858,840.9
650.99,839.4
651.121,839.4
651.253,839.5
651.385,838.0
651.516,838.0
651.648,839.0
651.779,839.0
651.911,839.7
652.043,838.3
652.174,837.5
652.306,838.7
652.437,838.1
652.569,837.3
652.7,837.9
652.832,838.8
652.963,839.0
653.095,837.8
653.227,839.1
653.358,838.9
653.49,836.2
653.621,838.4
653.753,838.1
653.884,838.5
654.016,837.4
654.147,837.6
654.279,837.7
654.41,838.0
654.542,837.9
654.674,838.1
654.805,839.2
654.937,837.9
655.068,837.9
655.2,837.9
655.331,838.4
655.463,838.5
655.594,838.5
655.726,837.6
655.857,837.9
655.989,837.7
656.12,837.5
656.252,836.6
656.383,837.9
656.515,836.0
656.646,837.4
656.778,837.9
656.909,836.2
657.041,837.7
657.172,837.9
657.304,837.1
657.435,838.3
657.567,837.3
657.698,838.2
657.829,837.4
657.961,838.1
658.092,835.5
658.224,838.8
658.355,837.9
658.487,837.2
658.618,837.7
658.75,837.7
658.881,839.8
659.013,836.9
659.144,836.9
659.275,836.3
659.407,837.8
659.538,838.4
659.67,839.8
659.801,838.8
659.933,838.5
660.064,836.8
660.196,837.6
660.327,838.9
660.458,837.4
660.59,837.1
660.721,838.1
660.853,836.5
660.984,836.8
661.116,837.4
661.247,838.1
661.378,838.5
661.51,838.0
661.641,838.2
661.773,836.3
661.904,836.5
662.035,837.5
662.167,836.4
662.298,836.6
662.43,836.8
662.561,838.0
662.692,838.1
662.824,836.7
662.955,835.8
663.087,835.8
