nm,Intensity
528.65,1837.9
528.734,1836.5
528.819,1838.4
528.903,1837.1
528.987,1837.25
529.071,1837.8
529.155,1837.4
529.239,1837.5
529.324,1836.7
529.408,1838.4
529.492,1836.8
529.576,1837.8
529.66,1838.45
529.745,1838.5
529.829,1837.45
529.913,1838.4
529.997,1836.65
530.081,1837.7
530.165,1837.35
530.25,1837.45
530.334,1838.55
530.418,1839.8
530.502,1837.6
530.586,1837.7
530.67,1836.9
530.754,1838.15
530.839,1838.35
530.923,1838.35
531.007,1837.9
531.091,1838.45
531.175,1838.05
531.259,1839.2
531.344,1838.7
531.428,1839.8
531.512,1839.25
531.596,1843.35
531.68,1849.75
531.764,1884.9
531.848,2011.55
531.933,2266.2
532.017,2436.8
532.101,2402.25
532.185,2178.3
532.269,1953.25
532.353,1853.0
532.437,1841.15
532.521,1839.3
532.606,1838.65
532.69,1839.05
532.774,1837.45
532.858,1838.25
532.942,1837.85
533.026,1839.45
533.11,1838.0
533.194,1838.25
533.279,1840.4
533.363,1839.55
533.447,1844.0
533.531,1853.9
533.615,1880.85
533.699,1929.6
533.783,1982.9
533.867,2027.35
533.951,2058.75
534.036,2075.3
534.12,2076.1
534.204,2075.8
534.288,2076.05
534.372,2056.35
534.456,2052.1
534.54,2043.45
534.624,2053.3
534.708,2046.7
534.792,2046.6
534.877,2041.9
534.961,2038.55
535.045,2041.0
535.129,2031.9
535.213,2028.6
535.297,2024.4
535.381,2013.45
535.465,2016.85
535.549,2007.8
535.633,2001.15
535.717,1997.65
535.801,1992.9
535.886,1997.75
535.97,1989.25
536.054,1981.15
536.138,1977.4
536.222,1975.45
536.306,1977.0
536.39,1973.2
536.474,1973.1
536.558,1961.95
536.642,1968.6
536.726,1967.55
536.81,1967.65
536.894,1965.45
536.978,1966.4
537.062,1969.35
537.146,1968.05
537.231,1971.15
537.315,1967.15
537.399,1973.5
537.483,1967.1
537.567,1967.15
537.651,1966.15
537.735,1966.15
537.819,1969.2
537.903,1966.9
537.987,1962.7
538.071,1961.0
538.155,1956.55
538.239,1959.0
538.323,1949.15
538.407,1953.0
538.491,1950.0
538.575,1945.95
538.659,1949.5
538.743,1948.5
538.827,1944.15
538.911,1941.5
538.995,1937.55
539.079,1939.95
539.163,1939.75
539.247,1939.35
539.331,1937.35
539.415,1941.1
539.499,1936.7
539.583,1932.3
539.667,1927.65
539.751,1925.55
539.835,1933.0
539.919,1931.85
540.003,1936.35
540.087,1930.55
540.171,1935.65
540.255,1926.7
540.339,1924.7
540.423,1923.85
540.507,1922.35
540.591,1925.65
540.675,1930.55
540.759,1930.1
540.843,1925.85
540.927,1923.25
541.011,1923.35
541.095,1925.3
541.179,1924.15
541.263,1923.3
541.347,1918.7
541.431,1921.6
541.515,1923.6
541.599,1922.1
541.683,1920.55
541.767,1927.2
541.851,1923.3
541.935,1924.15
542.019,1925.95
542.103,1926.45
542.187,1922.95
542.271,1921.85
542.355,1925.05
542.439,1923.3
542.523,1923.2
542.607,1922.2
542.691,1929.45
542.775,1925.1
542.859,1919.3
542.943,1923.3
543.027,1923.95
543.111,1925.95
543.195,1926.6
543.279,1922.3
543.363,1920.5
543.446,1925.95
543.53,1929.7
543.614,1923.4
543.698,1924.6
543.782,1930.55
543.866,1931.95
543.95,1930.4
544.034,1933.45
544.118,1933.9
544.202,1937.8
544.286,1933.3
544.37,1933.55
544.454,1938.15
544.538,1939.9
544.622,1939.2
544.706,1942.55
544.789,1944.7
544.873,1945.55
544.957,1948.05
545.041,1956.2
545.125,1965.3
545.209,1971.9
545.293,1978.2
545.377,1989.6
545.461,1995.5
545.545,2007.7
545.629,2010.1
545.713,2025.9
545.796,2046.1
545.88,2051.45
545.964,2053.65
546.048,2047.05
546.132,2036.95
546.216,2026.7
546.3,2010.8
546.384,2006.75
546.468,1983.7
546.552,1976.05
546.635,1966.95
546.719,1958.6
546.803,1954.75
546.887,1943.6
546.971,1940.2
547.055,1936.15
547.139,1932.35
547.223,1929.05
547.306,1929.3
547.39,1927.85
547.474,1925.65
547.558,1926.1
547.642,1923.55
547.726,1924.6
547.81,1925.55
547.894,1927.65
547.977,1931.05
548.061,1927.65
548.145,1929.3
548.229,1929.35
548.313,1922.65
548.397,1930.9
548.481,1926.2
548.564,1926.05
548.648,1929.95
548.732,1928.05
548.816,1922.25
548.9,1920.75
548.984,1928.9
549.068,1934.8
549.151,1928.2
549.235,1932.1
549.319,1931.95
549.403,1938.8
549.487,1940.4
549.571,1945.1
549.655,1948.4
549.738,1950.2
549.822,1952.85
549.906,1952.8
549.99,1947.45
550.074,1948.1
550.158,1941.7
550.241,1944.95
550.325,1953.8
550.409,1957.8
550.493,1963.4
550.577,1971.7
550.66,1984.0
550.744,1986.7
550.828,1979.7
550.912,1970.7
550.996,1965.55
551.08,1948.7
551.163,1939.6
551.247,1940.3
551.331,1938.6
551.415,1937.55
551.499,1940.35
551.582,1934.25
551.666,1935.35
551.75,1932.25
551.834,1931.9
551.918,1929.35
552.001,1927.7
552.085,1930.35
552.169,1928.5
552.253,1929.05
552.337,1924.15
552.42,1927.65
552.504,1925.85
552.588,1925.55
552.672,1923.0
552.755,1922.25
552.839,1927.45
552.923,1928.55
553.007,1937.7
553.091,1927.8
553.174,1932.35
553.258,1941.15
553.342,1941.2
553.426,1939.85
553.509,1936.4
553.593,1938.8
553.677,1939.65
553.761,1940.05
553.844,1938.9
553.928,1939.95
554.012,1944.5
554.096,1941.25
554.179,1941.75
554.263,1938.7
554.347,1940.6
554.431,1944.3
554.514,1940.85
554.598,1940.15
554.682,1950.4
554.766,1952.05
554.849,1944.8
554.933,1942.25
555.017,1945.65
555.101,1943.6
555.184,1941.15
555.268,1947.6
555.352,1946.15
555.436,1950.15
555.519,1944.55
555.603,1945.05
555.687,1949.9
555.771,1953.65
555.854,1950.35
555.938,1954.7
556.022,1953.9
556.105,1953.85
556.189,1955.8
556.273,1952.2
556.357,1959.2
556.44,1960.8
556.524,1962.95
556.608,1958.15
556.691,1958.5
556.775,1959.2
556.859,1964.6
556.943,1967.35
557.026,1976.65
557.11,1968.9
557.194,1971.7
557.277,1970.9
557.361,1972.4
557.445,1978.05
557.528,1977.65
557.612,1977.4
557.696,1983.9
557.779,1988.65
557.863,1986.8
557.947,1983.5
558.031,1984.35
558.114,1993.75
558.198,1994.6
558.282,1997.4
558.365,1996.15
558.449,1992.05
558.533,1996.15
558.616,1992.0
558.7,1994.1
558.784,1993.1
558.867,1987.95
558.951,1985.65
559.035,1981.1
559.118,1982.4
559.202,1979.1
559.286,1975.3
559.369,1970.4
559.453,1974.75
559.537,1978.7
559.62,1975.0
559.704,1975.25
559.788,1969.05
559.871,1970.45
559.955,1973.65
560.038,1971.3
560.122,1969.8
560.206,1972.9
560.289,1971.7
560.373,1974.0
560.457,1982.05
560.54,1976.25
560.624,1974.5
560.708,1978.0
560.791,1980.85
560.875,1977.85
560.958,1983.0
561.042,1980.0
561.126,1988.1
561.209,1997.3
561.293,2002.55
561.377,2002.0
561.46,2012.3
561.544,2029.05
561.627,2059.0
561.711,2097.95
561.795,2148.15
561.878,2209.25
561.962,2282.4
562.045,2376.3
562.129,2489.15
562.213,2595.6
562.296,2671.3
562.38,2694.15
562.463,2647.85
562.547,2502.9
562.631,2362.3
562.714,2244.9
562.798,2154.45
562.881,2090.9
562.965,2061.45
563.049,2045.5
563.132,2039.65
563.216,2030.5
563.299,2034.7
563.383,2035.55
563.467,2045.9
563.55,2069.8
563.634,2099.2
563.717,2137.15
563.801,2216.4
563.884,2304.0
563.968,2391.35
564.052,2384.75
564.135,2318.85
564.219,2230.2
564.302,2168.1
564.386,2142.45
564.469,2136.4
564.553,2121.35
564.636,2127.8
564.72,2102.65
564.804,2111.7
564.887,2105.0
564.971,2102.35
565.054,2088.15
565.138,2086.6
565.221,2082.55
565.305,2079.65
565.388,2078.5
565.472,2084.6
565.556,2106.6
565.639,2122.15
565.723,2156.5
565.806,2213.45
565.89,2311.15
565.973,2406.35
566.057,2519.15
566.14,2557.2
566.224,2476.7
566.307,2363.15
566.391,2238.5
566.474,2167.85
566.558,2121.4
566.641,2107.65
566.725,2092.05
566.808,2074.3
566.892,2060.95
566.975,2057.4
567.059,2053.0
567.142,2052.65
567.226,2061.9
567.309,2058.3
567.393,2055.35
567.476,2063.9
567.56,2050.6
567.643,2035.7
567.727,2030.65
567.81,2025.05
567.894,2027.9
567.977,2023.5
568.061,2021.5
568.144,2030.15
568.228,2027.15
568.311,2026.8
568.395,2019.25
568.478,2021.8
568.562,2023.8
568.645,2021.8
568.729,2018.6
568.812,2017.9
568.896,2024.3
568.979,2033.3
569.063,2025.65
569.146,2020.2
569.23,2021.0
569.313,2023.5
569.396,2026.4
569.48,2026.85
569.563,2027.25
569.647,2024.05
569.73,2024.7
569.814,2023.55
569.897,2023.1
569.981,2032.0
570.064,2033.85
570.148,2037.6
570.231,2034.25
570.314,2048.3
570.398,2057.55
570.481,2057.75
570.565,2054.7
570.648,2063.7
570.732,2077.05
570.815,2076.85
570.898,2081.35
570.982,2088.75
571.065,2103.25
571.149,2142.5
571.232,2215.3
571.316,2343.1
571.399,2524.9
571.482,2674.8
571.566,2656.5
571.649,2489.5
571.733,2350.6
571.816,2248.85
571.9,2228.1
571.983,2192.15
572.066,2164.6
572.15,2166.15
572.233,2141.25
572.317,2128.05
572.4,2100.15
572.483,2094.65
572.567,2093.6
572.65,2080.25
572.734,2072.25
572.817,2070.9
572.9,2072.3
572.984,2072.4
573.067,2075.75
573.15,2075.9
573.234,2070.25
573.317,2083.1
573.401,2067.75
573.484,2078.4
573.567,2081.0
573.651,2085.55
573.734,2095.55
573.818,2105.3
573.901,2111.05
573.984,2113.95
574.068,2117.4
574.151,2095.35
574.234,2092.1
574.318,2088.9
574.401,2083.0
574.484,2075.55
574.568,2077.2
574.651,2075.8
574.734,2082.4
574.818,2084.15
574.901,2090.9
574.985,2105.75
575.068,2107.4
575.151,2129.05
575.235,2172.55
575.318,2233.2
575.401,2337.3
575.485,2393.85
575.568,2437.0
575.651,2417.25
575.735,2368.8
575.818,2343.55
575.901,2378.15
575.985,2425.0
576.068,2478.7
576.151,2522.85
576.235,2563.85
576.318,2574.55
576.401,2534.35
576.484,2497.6
576.568,2466.7
576.651,2454.8
576.734,2443.25
576.818,2424.25
576.901,2439.2
576.984,2411.45
577.068,2398.8
577.151,2365.55
577.234,2325.45
577.318,2298.5
577.401,2258.6
577.484,2235.65
577.567,2215.05
577.651,2207.8
577.734,2208.45
577.817,2214.75
577.901,2202.7
577.984,2203.8
578.067,2204.25
578.15,2200.95
578.234,2199.05
578.317,2207.7
578.4,2194.9
578.484,2205.45
578.567,2200.0
578.65,2210.15
578.733,2213.85
578.817,2231.25
578.9,2229.3
578.983,2226.15
579.066,2235.2
579.15,2241.55
579.233,2235.95
579.316,2242.7
579.399,2254.4
579.483,2251.9
579.566,2259.4
579.649,2256.9
579.732,2261.5
579.816,2257.4
579.899,2269.75
579.982,2283.25
580.065,2276.6
580.149,2290.1
580.232,2301.35
580.315,2290.35
580.398,2293.6
580.482,2312.8
580.565,2315.6
580.648,2310.7
580.731,2323.45
580.815,2312.85
580.898,2321.35
580.981,2329.95
581.064,2341.55
581.147,2335.75
581.231,2340.75
581.314,2349.95
581.397,2363.95
581.48,2343.1
581.563,2368.6
581.647,2383.9
581.73,2375.6
581.813,2377.6
581.896,2383.9
581.979,2388.7
582.063,2381.0
582.146,2385.45
582.229,2374.35
582.312,2382.3
582.395,2390.35
582.479,2420.2
582.562,2416.75
582.645,2407.05
582.728,2408.25
582.811,2418.15
582.895,2439.4
582.978,2428.35
583.061,2424.8
583.144,2425.45
583.227,2443.3
583.31,2457.85
583.394,2460.95
583.477,2450.4
583.56,2439.55
583.643,2460.35
583.726,2485.0
583.809,2468.9
583.893,2482.8
583.976,2480.6
584.059,2497.9
584.142,2484.5
584.225,2497.9
584.308,2485.5
584.391,2492.5
584.475,2492.55
584.558,2494.1
584.641,2506.7
584.724,2524.3
584.807,2523.4
584.89,2510.2
584.973,2522.0
585.057,2518.45
585.14,2543.55
585.223,2520.2
585.306,2540.05
585.389,2529.05
585.472,2535.4
585.555,2548.85
585.638,2534.75
585.722,2565.2
585.805,2538.5
585.888,2565.35
585.971,2548.05
586.054,2566.65
586.137,2587.3
586.22,2584.8
586.303,2575.85
586.386,2594.35
586.47,2589.95
586.553,2620.45
586.636,2583.85
586.719,2597.3
586.802,2610.75
586.885,2621.95
586.968,2616.2
587.051,2640.4
587.134,2627.85
587.217,2630.55
587.3,2627.7
587.384,2614.3
587.467,2674.15
587.55,2660.7
587.633,2656.75
587.716,2685.25
587.799,2687.4
587.882,2680.85
587.965,2675.95
588.048,2695.9
588.131,2706.35
588.214,2686.75
588.297,2678.0
588.38,2701.1
588.463,2711.35
588.546,2713.8
588.63,2703.0
588.713,2723.55
588.796,2720.55
588.879,2732.1
588.962,2721.75
589.045,2744.0
589.128,2762.45
589.211,2751.55
589.294,2730.95
589.377,2731.5
589.46,2763.45
589.543,2785.65
589.626,2790.2
589.709,2755.95
589.792,2759.8
589.875,2784.1
589.958,2784.25
590.041,2793.95
590.124,2795.55
590.207,2791.6
590.29,2806.7
590.373,2835.25
590.456,2858.1
590.539,2843.75
590.622,2832.15
590.705,2832.1
590.788,2871.8
590.871,2850.65
590.954,2858.45
591.037,2858.6
591.12,2860.65
591.203,2886.6
591.286,2884.95
591.369,2888.25
591.452,2897.5
591.535,2900.35
591.618,2884.95
591.701,2911.45
591.784,2902.05
591.867,2916.0
591.95,2945.85
592.033,2945.65
592.116,2911.15
592.199,2909.8
592.282,2918.15
592.365,2932.55
592.448,2936.9
592.531,2939.75
592.614,2946.4
592.697,2920.25
592.78,2937.75
592.863,2999.15
592.946,2982.45
593.029,2955.95
593.112,2970.2
593.195,2983.9
593.278,2971.95
593.361,2954.05
593.443,2968.0
593.526,2979.25
593.609,3025.05
593.692,3030.35
593.775,3003.75
593.858,2984.6
593.941,2976.8
594.024,3000.45
594.107,3006.25
594.19,2982.3
594.273,2997.5
594.356,3049.95
594.439,3066.15
594.522,3042.45
594.604,3051.7
594.687,3052.65
594.77,3045.05
594.853,3035.5
594.936,3060.5
595.019,3026.7
595.102,3066.3
595.185,3081.25
595.268,3077.85
595.351,3094.45
595.434,3066.6
595.516,3103.9
595.599,3151.8
595.682,3132.25
595.765,3120.95
595.848,3128.0
595.931,3139.9
596.014,3123.65
596.097,3114.1
596.18,3142.5
596.262,3153.5
596.345,3151.5
596.428,3186.8
596.511,3203.05
596.594,3181.8
596.677,3195.6
596.76,3208.85
596.843,3211.15
596.925,3173.35
597.008,3163.65
597.091,3201.3
597.174,3263.7
597.257,3304.3
597.34,3278.45
597.423,3231.55
597.505,3201.35
597.588,3235.5
597.671,3246.65
597.754,3254.25
597.837,3288.3
597.92,3288.65
598.002,3296.6
598.085,3320.35
598.168,3322.65
598.251,3279.95
598.334,3310.05
598.417,3276.1
598.499,3330.8
598.582,3313.85
598.665,3362.35
598.748,3369.0
598.831,3376.8
598.914,3343.6
598.996,3372.05
599.079,3387.9
599.162,3363.15
599.245,3399.05
599.328,3416.15
599.41,3423.0
599.493,3425.15
599.576,3439.3
599.659,3462.25
599.742,3454.5
599.824,3420.45
599.907,3450.6
599.99,3478.7
600.073,3458.35
600.156,3430.65
600.238,3440.65
600.321,3439.7
600.404,3452.55
600.487,3454.05
600.57,3438.4
600.652,3467.3
600.735,3475.6
600.818,3471.15
600.901,3449.75
600.983,3451.55
601.066,3462.9
601.149,3474.65
601.232,3433.25
601.314,3447.1
601.397,3466.95
601.48,3496.35
601.563,3424.7
601.645,3401.45
601.728,3438.75
601.811,3475.2
601.894,3485.95
601.976,3491.0
602.059,3470.85
602.142,3438.4
602.225,3424.5
602.307,3428.1
602.39,3428.85
602.473,3476.55
602.556,3466.15
602.638,3424.7
602.721,3386.85
602.804,3381.9
602.887,3427.25
602.969,3397.55
603.052,3367.95
603.135,3365.1
603.217,3364.45
603.3,3376.0
603.383,3380.45
603.466,3423.55
603.548,3424.6
603.631,3357.15
603.714,3359.1
603.796,3315.1
603.879,3300.45
603.962,3318.55
604.045,3318.3
604.127,3293.15
604.21,3299.5
604.293,3286.15
604.375,3302.0
604.458,3288.8
604.541,3274.5
604.623,3271.7
604.706,3257.25
604.789,3257.6
604.871,3215.15
604.954,3207.85
605.037,3206.0
605.119,3203.4
605.202,3207.15
605.285,3205.0
605.367,3208.1
605.45,3167.65
605.533,3139.1
605.615,3129.25
605.698,3141.95
605.781,3121.85
605.863,3143.55
605.946,3136.85
606.029,3140.55
606.111,3133.45
606.194,3115.55
606.277,3083.45
606.359,3060.25
606.442,3072.05
606.524,3072.35
606.607,3031.7
606.69,3021.95
606.772,3057.1
606.855,3043.55
606.938,3034.3
607.02,3024.5
607.103,2996.2
607.185,3005.1
607.268,3005.9
607.351,2988.9
607.433,2984.65
607.516,2986.95
607.599,2982.35
607.681,2992.45
607.764,2976.4
607.846,2950.75
607.929,2955.8
608.012,2939.65
608.094,2917.5
608.177,2946.05
608.259,2926.1
608.342,2920.7
608.425,2903.75
608.507,2926.75
608.59,2920.35
608.672,2866.75
608.755,2863.45
608.837,2896.9
608.92,2896.3
609.003,2879.05
609.085,2861.75
609.168,2863.2
609.25,2857.6
609.333,2871.45
609.415,2839.75
609.498,2811.85
609.581,2837.25
609.663,2821.0
609.746,2859.45
609.828,2867.75
609.911,2846.65
609.993,2824.25
610.076,2827.05
610.158,2798.5
610.241,2788.9
610.324,2801.65
610.406,2810.8
610.489,2798.15
610.571,2829.7
610.654,2828.65
610.736,2804.4
610.819,2783.45
610.901,2793.0
610.984,2780.6
611.066,2769.15
611.149,2772.05
611.231,2787.9
611.314,2821.9
611.396,2787.0
611.479,2779.35
611.561,2767.05
611.644,2756.15
611.727,2734.1
611.809,2759.9
611.892,2741.65
611.974,2730.85
612.057,2737.4
612.139,2735.1
612.222,2732.75
612.304,2722.95
612.386,2721.65
612.469,2701.6
612.551,2693.75
612.634,2698.0
612.716,2716.5
612.799,2708.7
612.881,2706.5
612.964,2683.95
613.046,2696.7
613.129,2690.75
613.211,2666.0
613.294,2666.7
613.376,2652.8
613.459,2682.2
613.541,2660.9
613.624,2663.85
613.706,2652.1
613.789,2660.1
613.871,2659.2
613.953,2677.75
614.036,2660.65
614.118,2650.65
614.201,2668.2
614.283,2651.1
614.366,2620.3
614.448,2647.65
614.531,2630.7
614.613,2639.8
614.695,2625.4
614.778,2632.2
614.86,2655.3
614.943,2634.35
615.025,2609.9
615.108,2618.1
615.19,2611.8
615.272,2604.2
615.355,2610.15
615.437,2604.9
615.52,2602.4
615.602,2601.9
615.684,2602.9
615.767,2600.15
615.849,2601.05
615.932,2593.9
616.014,2581.35
616.097,2599.75
616.179,2597.45
616.261,2588.05
616.344,2600.05
616.426,2589.85
616.508,2571.5
616.591,2556.6
616.673,2557.2
616.756,2562.3
616.838,2578.75
616.92,2559.05
617.003,2566.1
617.085,2565.75
617.168,2584.65
617.25,2561.5
617.332,2565.95
617.415,2576.3
617.497,2554.2
617.579,2558.3
617.662,2566.55
617.744,2553.05
617.826,2541.35
617.909,2545.7
617.991,2542.9
618.073,2546.75
618.156,2542.15
618.238,2564.3
618.32,2557.3
618.403,2565.6
618.485,2557.5
618.567,2530.35
618.65,2524.0
618.732,2543.75
618.814,2538.2
618.897,2532.05
618.979,2533.3
619.061,2524.2
619.144,2526.5
619.226,2524.7
619.308,2520.55
619.391,2542.2
619.473,2538.45
619.555,2546.1
619.638,2549.5
619.72,2538.45
619.802,2529.3
619.885,2522.5
619.967,2511.7
620.049,2512.95
620.131,2497.75
620.214,2508.75
620.296,2521.6
620.378,2543.55
620.461,2528.0
620.543,2525.1
620.625,2530.3
620.707,2511.55
620.79,2532.45
620.872,2537.1
620.954,2544.9
621.037,2522.4
621.119,2526.0
621.201,2523.0
621.283,2533.8
621.366,2530.4
621.448,2538.85
621.53,2553.0
621.612,2564.85
621.695,2574.0
621.777,2572.7
621.859,2603.5
621.941,2606.65
622.024,2588.0
622.106,2603.15
622.188,2604.45
622.27,2596.9
622.353,2608.85
622.435,2617.5
622.517,2595.55
622.599,2588.5
622.682,2565.25
622.764,2546.55
622.846,2519.85
622.928,2502.4
623.01,2511.05
623.093,2486.3
623.175,2493.4
623.257,2486.9
623.339,2497.5
623.422,2485.75
623.504,2461.7
623.586,2466.15
623.668,2459.7
623.75,2468.95
623.833,2456.95
623.915,2476.2
623.997,2462.55
624.079,2468.4
624.161,2452.25
624.244,2453.4
624.326,2461.75
624.408,2461.1
624.49,2458.5
624.572,2444.65
624.654,2454.55
624.737,2445.45
624.819,2463.55
624.901,2465.1
624.983,2484.1
625.065,2471.1
625.147,2458.1
625.23,2442.95
625.312,2447.9
625.394,2472.75
625.476,2478.15
625.558,2471.85
625.64,2491.1
625.723,2495.25
625.805,2486.8
625.887,2508.05
625.969,2514.55
626.051,2532.65
626.133,2559.65
626.215,2575.4
626.298,2615.95
626.38,2666.2
626.462,2730.05
626.544,2818.4
626.626,2939.4
626.708,3167.3
626.79,3487.15
626.872,3829.8
626.955,4140.0
627.037,4414.55
627.119,4629.15
627.201,4749.55
627.283,4742.4
627.365,4588.9
627.447,4480.05
627.529,4308.65
627.611,4229.15
627.693,4022.2
627.776,3890.5
627.858,3795.0
627.94,3788.05
628.022,3800.65
628.104,3903.45
628.186,4006.25
628.268,4230.75
628.35,4563.05
628.432,4815.0
628.514,4730.15
628.596,4598.7
628.678,4426.1
628.761,4251.15
628.843,4178.7
628.925,4120.95
629.007,4086.75
629.089,4022.95
629.171,3947.45
629.253,3905.35
629.335,3837.4
629.417,3772.8
629.499,3709.45
629.581,3603.9
629.663,3538.55
629.745,3512.65
629.827,3466.15
629.909,3473.25
629.991,3475.55
630.073,3474.45
630.155,3435.55
630.237,3387.2
630.319,3391.75
630.401,3328.45
630.483,3295.6
630.565,3251.8
630.647,3237.65
630.73,3130.6
630.812,3043.2
630.894,2966.95
630.976,2904.7
631.058,2814.4
631.14,2732.95
631.222,2705.2
631.304,2651.45
631.386,2622.15
631.468,2613.75
631.55,2612.2
631.632,2596.65
631.714,2578.1
631.796,2562.2
631.877,2557.95
631.959,2529.95
632.041,2496.0
632.123,2490.9
632.205,2475.75
632.287,2480.6
632.369,2473.8
632.451,2464.95
632.533,2493.7
632.615,2472.1
632.697,2463.4
632.779,2450.6
632.861,2440.1
632.943,2435.85
633.025,2458.8
633.107,2439.9
633.189,2437.4
633.271,2432.45
633.353,2426.15
633.435,2426.2
633.517,2439.5
633.599,2429.7
633.681,2430.65
633.763,2463.6
633.844,2429.65
633.926,2422.25
634.008,2435.65
634.09,2441.2
634.172,2430.0
634.254,2427.55
634.336,2424.05
634.418,2424.85
634.5,2407.7
634.582,2401.15
634.664,2409.35
634.746,2425.25
634.827,2426.75
634.909,2419.6
634.991,2416.4
635.073,2422.35
635.155,2409.0
635.237,2405.4
635.319,2408.8
635.401,2426.45
635.483,2409.5
635.564,2401.0
635.646,2411.9
635.728,2414.05
635.81,2418.7
635.892,2419.4
635.974,2410.15
636.056,2409.85
636.138,2408.95
636.219,2409.55
636.301,2408.35
636.383,2409.35
