nm,Intensity
526.508,830.4
526.645,830.0
526.782,830.2
526.919,830.6
527.055,831.5
527.192,830.9
527.329,829.2
527.465,830.8
527.602,827.8
527.739,830.0
527.875,830.1
528.012,831.4
528.149,830.9
528.285,830.0
528.422,831.5
528.558,831.4
528.695,831.6
528.832,830.5
528.968,830.9
529.105,829.7
529.241,830.6
529.378,830.3
529.514,830.6
529.651,830.9
529.787,830.6
529.924,830.2
530.061,830.3
530.197,829.6
530.334,831.0
530.47,829.5
530.606,829.3
530.743,829.1
530.879,831.7
531.016,830.2
531.152,829.8
531.289,830.0
531.425,829.9
531.562,830.2
531.698,830.5
531.834,829.6
531.971,834.6
532.107,873.5
532.244,885.4
532.38,842.5
532.516,831.3
532.653,830.0
532.789,830.6
532.925,831.6
533.062,831.4
533.198,830.0
533.334,830.2
533.471,830.3
533.607,834.3
533.743,869.7
533.879,1038.3
534.016,1319.7
534.152,1430.2
534.288,1426.8
534.424,1387.1
534.561,1346.0
534.697,1321.0
534.833,1268.3
534.969,1207.4
535.106,1158.9
535.242,1117.6
535.378,1075.5
535.514,1051.6
535.65,1019.9
535.786,1001.5
535.923,986.8
536.059,974.1
536.195,959.5
536.331,956.1
536.467,951.5
536.603,950.3
536.739,944.6
536.876,943.7
537.012,940.9
537.148,937.3
537.284,934.9
537.42,930.8
537.556,926.8
537.692,930.3
537.828,933.1
537.964,929.5
538.1,935.7
538.236,937.3
538.372,937.3
538.508,936.1
538.644,937.7
538.78,940.0
538.916,924.7
539.052,914.3
539.188,907.5
539.324,909.6
539.46,906.1
539.596,904.8
539.732,897.3
539.868,899.4
540.004,900.1
540.14,897.2
540.275,896.6
540.411,896.3
540.547,891.9
540.683,890.0
540.819,895.7
540.955,893.8
541.091,893.3
541.227,891.4
541.362,893.2
541.498,893.7
541.634,892.4
541.77,893.0
541.906,892.1
542.041,893.3
542.177,893.2
542.313,890.8
542.449,888.5
542.585,891.4
542.72,888.5
542.856,889.1
542.992,889.8
543.128,895.0
543.263,895.4
543.399,892.5
543.535,894.9
543.67,892.2
543.806,895.6
543.942,893.1
544.078,891.6
544.213,892.2
544.349,888.2
544.485,887.8
544.62,890.2
544.756,882.3
544.892,887.4
545.027,887.4
545.163,884.9
545.298,884.3
545.434,888.4
545.57,882.5
545.705,883.4
545.841,881.9
545.976,885.6
546.112,881.3
546.248,882.7
546.383,884.1
546.519,880.0
546.654,883.1
546.79,878.5
546.925,881.6
547.061,881.8
547.196,878.7
547.332,879.2
547.467,881.3
547.603,881.7
547.738,880.8
547.874,883.9
548.009,886.6
548.145,882.2
548.28,882.1
548.416,880.3
548.551,880.8
548.686,880.8
548.822,883.3
548.957,879.7
549.093,879.5
549.228,879.2
549.363,880.4
549.499,879.9
549.634,877.5
549.77,879.3
549.905,878.4
550.04,878.6
550.176,886.6
550.311,909.8
550.446,907.4
550.582,891.0
550.717,879.0
550.852,878.3
550.988,878.1
551.123,874.6
551.258,878.6
551.394,874.0
551.529,875.2
551.664,873.4
551.799,872.9
551.935,875.6
552.07,875.8
552.205,874.0
552.34,873.3
552.476,874.1
552.611,875.2
552.746,873.9
552.881,873.8
553.016,876.2
553.152,872.1
553.287,874.2
553.422,873.4
553.557,874.2
553.692,875.8
553.827,877.8
553.963,878.2
554.098,882.8
554.233,882.8
554.368,886.6
554.503,888.1
554.638,887.0
554.773,887.5
554.908,884.3
555.043,883.1
555.179,883.9
555.314,886.0
555.449,893.1
555.584,899.4
555.719,904.2
555.854,899.0
555.989,888.9
556.124,883.9
556.259,881.8
556.394,879.5
556.529,875.3
556.664,877.6
556.799,875.8
556.934,875.8
557.069,879.8
557.204,881.0
557.339,879.5
557.474,878.4
557.609,874.6
557.744,876.5
557.879,877.1
558.014,873.2
558.149,873.7
558.284,873.7
558.419,873.4
558.553,874.4
558.688,876.5
558.823,875.7
558.958,877.1
559.093,880.6
559.228,879.8
559.363,879.0
559.498,874.1
559.632,873.0
559.767,876.2
559.902,873.7
560.037,876.2
560.172,877.0
560.307,876.0
560.441,874.4
560.576,876.1
560.711,873.6
560.846,878.1
560.981,878.4
561.115,877.1
561.25,877.8
561.385,882.8
561.52,884.6
561.654,894.6
561.789,907.4
561.924,951.9
562.059,1098.7
562.193,1179.1
562.328,1006.5
562.463,910.9
562.598,887.0
562.732,890.4
562.867,907.3
563.002,947.5
563.136,961.8
563.271,933.4
563.406,906.8
563.54,891.9
563.675,885.8
563.81,886.4
563.944,885.3
564.079,886.1
564.213,888.7
564.348,890.4
564.483,888.1
564.617,888.2
564.752,887.7
564.887,884.8
565.021,890.9
565.156,885.9
565.29,886.5
565.425,884.2
565.559,884.3
565.694,879.4
565.828,877.2
565.963,879.1
566.098,878.5
566.232,877.1
566.367,879.6
566.501,881.8
566.636,883.8
566.77,889.0
566.905,899.1
567.039,912.4
567.174,906.8
567.308,894.7
567.443,893.6
567.577,895.9
567.711,904.2
567.846,917.8
567.98,924.3
568.115,923.1
568.249,928.6
568.384,931.3
568.518,932.1
568.652,923.4
568.787,915.4
568.921,903.9
569.056,898.1
569.19,896.8
569.324,895.4
569.459,892.9
569.593,891.1
569.727,891.6
569.862,890.1
569.996,887.5
570.131,890.0
570.265,889.6
570.399,886.7
570.534,886.9
570.668,891.5
570.802,888.9
570.936,887.5
571.071,888.7
571.205,891.4
571.339,891.4
571.474,888.2
571.608,892.4
571.742,896.6
571.876,894.8
572.011,898.4
572.145,896.8
572.279,897.2
572.413,901.4
572.548,903.1
572.682,901.5
572.816,905.7
572.95,900.6
573.084,900.0
573.219,901.5
573.353,896.4
573.487,897.8
573.621,899.6
573.755,900.1
573.889,897.4
574.024,897.5
574.158,896.8
574.292,893.4
574.426,895.1
574.56,890.5
574.694,893.6
574.828,895.2
574.963,889.6
575.097,892.0
575.231,889.0
575.365,895.0
575.499,890.2
575.633,892.1
575.767,891.2
575.901,891.5
576.035,892.3
576.169,896.8
576.303,901.4
576.437,904.0
576.571,913.4
576.706,912.4
576.84,907.5
576.974,906.3
577.108,896.1
577.242,895.0
577.376,891.8
577.51,892.8
577.644,893.7
577.778,896.8
577.912,893.3
578.046,893.8
578.179,893.6
578.313,892.3
578.447,891.5
578.581,893.7
578.715,892.3
578.849,895.3
578.983,894.0
579.117,893.4
579.251,895.9
579.385,890.3
579.519,894.2
579.653,892.3
579.787,894.0
579.921,892.5
580.054,893.7
580.188,894.5
580.322,893.1
580.456,900.5
580.59,896.6
580.724,897.7
580.858,904.3
580.991,907.4
581.125,924.3
581.259,921.5
581.393,913.3
581.527,919.6
581.661,949.8
581.794,978.0
581.928,966.3
582.062,925.7
582.196,907.8
582.33,898.7
582.463,899.2
582.597,895.8
582.731,893.1
582.865,895.2
582.998,895.4
583.132,894.3
583.266,896.6
583.4,894.9
583.533,891.5
583.667,892.8
583.801,894.6
583.935,894.3
584.068,892.1
584.202,892.2
584.336,893.9
584.469,891.5
584.603,895.4
584.737,892.7
584.87,890.8
585.004,895.1
585.138,892.6
585.271,892.0
585.405,892.4
585.539,892.1
585.672,894.0
585.806,893.7
585.94,891.0
586.073,891.3
586.207,893.5
586.34,892.7
586.474,890.0
586.608,891.8
586.741,894.7
586.875,891.6
587.008,893.0
587.142,893.2
587.276,893.1
587.409,892.7
587.543,891.3
587.676,893.2
587.81,891.0
587.943,893.5
588.077,890.2
588.21,889.2
588.344,891.6
588.478,890.3
588.611,889.8
588.745,891.0
588.878,885.8
589.012,890.7
589.145,889.9
589.279,888.0
589.412,888.8
589.546,888.9
589.679,892.1
589.812,889.8
589.946,890.5
590.079,891.8
590.213,891.9
590.346,892.9
590.48,890.3
590.613,888.7
590.747,887.2
590.88,890.3
591.013,888.0
591.147,890.5
591.28,890.3
591.414,887.2
591.547,889.5
591.68,889.2
591.814,889.4
591.947,890.4
592.081,890.1
592.214,886.6
592.347,886.9
592.481,890.2
592.614,888.0
592.747,890.3
592.881,889.0
593.014,888.5
593.147,887.3
593.281,888.3
593.414,887.9
593.547,885.5
593.681,891.1
593.814,889.6
593.947,889.2
594.081,887.9
594.214,887.1
594.347,887.5
594.48,889.0
594.614,888.4
594.747,889.8
594.88,888.2
595.014,887.7
595.147,890.7
595.28,888.1
595.413,886.9
595.547,886.2
595.68,889.8
595.813,887.9
595.946,889.0
596.079,886.7
596.213,887.9
596.346,883.5
596.479,883.7
596.612,886.2
596.745,888.9
596.879,887.5
597.012,889.5
597.145,885.2
597.278,887.3
597.411,889.2
597.545,887.2
597.678,887.7
597.811,888.6
597.944,886.1
598.077,885.1
598.21,889.7
598.343,891.5
598.476,887.5
598.61,887.8
598.743,889.1
598.876,890.0
599.009,886.2
599.142,890.2
599.275,889.7
599.408,887.7
599.541,888.3
599.674,890.6
599.807,887.1
599.941,886.2
600.074,891.1
600.207,888.2
600.34,886.4
600.473,887.7
600.606,886.2
600.739,889.5
600.872,889.4
601.005,887.8
601.138,887.3
601.271,885.7
601.404,886.3
601.537,884.9
601.67,889.3
601.803,885.9
601.936,889.2
602.069,886.8
602.202,890.4
602.335,888.6
602.468,887.8
602.601,885.1
602.734,888.6
602.867,889.5
603.0,887.4
603.133,886.4
603.266,887.5
603.399,886.0
603.532,885.2
603.664,888.1
603.797,889.5
603.93,888.9
604.063,888.9
604.196,887.3
604.329,889.4
604.462,890.7
604.595,889.9
604.728,889.3
604.861,890.7
604.994,891.2
605.126,886.0
605.259,888.7
605.392,890.1
605.525,889.2
605.658,886.7
605.791,884.0
605.924,889.1
606.056,886.6
606.189,889.1
606.322,888.4
606.455,886.7
606.588,887.4
606.721,889.9
606.853,888.5
606.986,888.3
607.119,891.2
607.252,886.2
607.385,889.8
607.517,888.8
607.65,888.1
607.783,888.9
607.916,888.2
608.049,889.3
608.181,890.5
608.314,893.1
608.447,889.4
608.58,888.8
608.712,892.4
608.845,889.7
608.978,888.3
609.111,890.7
609.243,894.3
609.376,892.6
609.509,890.4
609.641,891.2
609.774,891.8
609.907,890.8
610.04,891.5
610.172,890.2
610.305,895.2
610.438,892.0
610.57,894.8
610.703,893.5
610.836,894.6
610.968,890.2
611.101,894.5
611.234,892.8
611.366,891.0
611.499,892.8
611.632,894.9
611.764,890.6
611.897,895.1
612.03,893.2
612.162,897.4
612.295,892.1
612.428,894.3
612.56,897.4
612.693,893.1
612.825,897.7
612.958,895.9
613.091,897.5
613.223,896.1
613.356,897.7
613.488,900.3
613.621,898.3
613.754,900.9
613.886,896.1
614.019,898.3
614.151,897.8
614.284,897.0
614.416,900.6
614.549,898.8
614.681,896.2
614.814,899.5
614.947,895.6
615.079,898.2
615.212,899.8
615.344,897.2
615.477,899.1
615.609,898.6
615.742,899.1
615.874,902.0
616.007,899.5
616.139,900.9
616.272,901.1
616.404,899.5
616.537,898.8
616.669,904.8
616.802,902.4
616.934,901.2
617.067,903.5
617.199,904.7
617.332,902.7
617.464,904.3
617.596,900.1
617.729,904.5
617.861,908.7
617.994,904.7
618.126,906.0
618.259,902.7
618.391,906.5
618.524,903.2
618.656,906.2
618.788,904.6
618.921,907.9
619.053,904.1
619.186,906.5
619.318,905.5
619.45,905.9
619.583,905.9
619.715,906.4
619.848,904.7
619.98,904.3
620.112,902.8
620.245,904.7
620.377,904.7
620.509,904.5
620.642,904.1
620.774,901.9
620.907,905.4
621.039,908.5
621.171,908.5
621.304,907.6
621.436,906.5
621.568,909.5
621.701,908.7
621.833,907.9
621.965,908.7
622.097,905.4
622.23,907.2
622.362,910.3
622.494,909.3
622.627,907.4
622.759,910.8
622.891,907.2
623.024,909.4
623.156,905.7
623.288,907.9
623.42,910.6
623.553,910.3
623.685,907.8
623.817,911.5
623.949,908.6
624.082,909.0
624.214,911.0
624.346,910.4
624.479,909.0
624.611,912.6
624.743,915.2
624.875,911.7
625.007,910.1
625.14,910.7
625.272,908.8
625.404,913.5
625.536,911.6
625.669,913.9
625.801,913.0
625.933,910.1
626.065,915.9
626.197,914.3
626.33,913.3
626.462,919.1
626.594,917.7
626.726,921.3
626.858,924.7
626.99,930.3
627.123,945.9
627.255,948.4
627.387,954.8
627.519,956.6
627.651,952.8
627.783,942.6
627.916,940.3
628.048,940.2
628.18,942.3
628.312,942.9
628.444,948.9
628.576,957.8
628.708,957.4
628.84,964.8
628.973,978.0
629.105,985.2
629.237,987.9
629.369,993.7
629.501,997.1
629.633,996.1
629.765,996.7
629.897,994.4
630.029,990.3
630.161,976.8
630.294,978.0
630.426,974.2
630.558,964.6
630.69,961.5
630.822,957.5
630.954,953.5
631.086,948.0
631.218,942.5
631.35,938.0
631.482,938.3
631.614,939.5
631.746,933.1
631.878,933.4
632.01,934.2
632.142,938.3
632.274,942.4
632.406,946.7
632.538,939.4
632.67,933.0
632.802,930.3
632.934,932.3
633.066,932.0
633.198,940.8
633.33,945.1
633.462,946.2
633.594,936.8
633.726,931.9
633.858,933.2
633.99,933.8
634.122,945.2
634.254,954.0
634.386,968.6
634.518,985.5
634.65,1004.0
634.782,1016.0
634.914,1017.3
635.046,1026.0
635.178,1068.3
635.31,1120.3
635.442,1144.9
635.574,1149.6
635.706,1137.7
635.838,1120.5
635.97,1088.9
636.102,1042.3
636.234,1013.1
636.365,979.8
636.497,966.3
636.629,958.0
636.761,946.8
636.893,948.0
637.025,937.3
637.157,938.4
637.289,932.2
637.421,935.1
637.553,932.8
637.685,929.8
637.816,932.0
637.948,928.1
638.08,925.4
638.212,928.9
638.344,924.2
638.476,925.2
638.608,925.6
638.74,926.7
638.871,924.9
639.003,923.7
639.135,926.9
639.267,923.9
639.399,929.8
639.531,926.9
639.662,928.8
639.794,928.6
639.926,929.9
640.058,929.9
640.19,928.6
640.322,929.2
640.453,923.7
640.585,925.7
640.717,926.1
640.849,926.5
640.981,925.7
641.113,929.8
641.244,931.9
641.376,931.5
641.508,932.0
641.64,931.0
641.772,929.4
641.903,930.5
642.035,927.5
642.167,924.3
642.299,925.6
642.43,927.9
642.562,927.3
642.694,926.5
642.826,928.3
642.958,923.5
643.089,924.8
643.221,923.6
643.353,926.7
643.485,923.6
643.616,919.6
643.748,927.5
643.88,922.4
644.012,919.3
644.143,925.5
644.275,921.3
644.407,928.4
644.538,923.5
644.67,923.8
644.802,923.4
644.934,930.8
645.065,925.1
645.197,925.9
645.329,921.1
645.461,929.7
645.592,926.5
645.724,927.8
645.856,922.6
645.987,923.5
646.119,926.8
646.251,927.8
646.382,927.6
646.514,928.0
646.646,925.8
646.777,928.1
646.909,927.2
647.041,929.4
647.172,926.1
647.304,926.6
647.436,926.5
647.567,925.3
647.699,924.4
647.831,927.1
647.962,927.5
648.094,929.6
648.226,927.6
648.357,931.1
648.489,928.9
648.621,930.8
648.752,927.6
648.884,930.5
649.016,930.8
649.147,929.2
649.279,931.6
649.411,932.5
649.542,930.9
649.674,931.3
649.805,931.9
649.937,932.1
650.069,929.9
650.2,931.0
650.332,926.7
650.463,928.5
650.595,931.4
650.727,927.8
650.858,929.0
650.99,928.2
651.121,929.4
651.253,932.1
651.385,933.8
651.516,930.9
651.648,932.5
651.779,930.0
651.911,930.2
652.043,932.6
652.174,926.3
652.306,935.6
652.437,930.8
652.569,930.8
652.7,929.5
652.832,931.3
652.963,932.0
653.095,933.6
653.227,931.3
653.358,932.6
653.49,933.1
653.621,930.7
653.753,931.0
653.884,931.1
654.016,934.2
654.147,931.4
654.279,933.4
654.41,928.7
654.542,926.1
654.674,932.8
654.805,927.8
654.937,927.3
655.068,930.0
655.2,930.0
655.331,931.1
655.463,929.2
655.594,932.8
655.726,931.1
655.857,930.5
655.989,928.7
656.12,930.1
656.252,929.5
656.383,932.1
656.515,932.4
656.646,931.9
656.778,931.7
656.909,930.7
657.041,930.7
657.172,930.5
657.304,929.4
657.435,930.5
657.567,932.4
657.698,929.0
657.829,934.6
657.961,929.7
658.092,929.6
658.224,929.2
658.355,928.6
658.487,931.8
658.618,932.5
658.75,934.6
658.881,930.8
659.013,926.8
659.144,930.2
659.275,929.4
659.407,932.5
659.538,931.1
659.67,930.9
659.801,929.5
659.933,929.9
660.064,932.3
660.196,928.6
660.327,930.4
660.458,937.7
660.59,932.9
660.721,931.1
660.853,933.4
660.984,931.0
661.116,930.8
661.247,929.7
661.378,933.8
661.51,931.4
661.641,930.8
661.773,931.0
661.904,931.7
662.035,928.0
662.167,931.3
662.298,934.0
662.43,929.2
662.561,933.1
662.692,934.8
662.824,929.3
662.955,930.9
663.087,932.3
