nm,Intensity
526.508,830.3
526.645,828.2
526.782,831.7
526.919,829.4
527.055,831.0
527.192,830.8
527.329,830.2
527.465,830.8
527.602,831.1
527.739,830.1
527.875,830.4
528.012,830.5
528.149,829.7
528.285,830.5
528.422,831.2
528.558,830.5
528.695,829.9
528.832,829.5
528.968,831.5
529.105,831.4
529.241,830.7
529.378,828.4
529.514,831.2
529.651,830.8
529.787,832.5
529.924,831.9
530.061,829.9
530.197,829.7
530.334,830.2
530.47,831.2
530.606,830.8
530.743,829.8
530.879,831.1
531.016,830.7
531.152,830.8
531.289,829.8
531.425,830.0
531.562,830.8
531.698,830.7
531.834,831.0
531.971,839.2
532.107,906.5
532.244,937.1
532.38,853.3
532.516,832.9
532.653,830.4
532.789,830.6
532.925,830.1
533.062,829.7
533.198,829.7
533.334,832.2
533.471,832.6
533.607,839.2
533.743,905.3
533.879,1238.4
534.016,1785.4
534.152,2017.0
534.288,2034.8
534.424,1964.6
534.561,1903.0
534.697,1871.2
534.833,1831.3
534.969,1769.3
535.106,1721.7
535.242,1672.6
535.378,1660.9
535.514,1634.7
535.65,1611.0
535.786,1592.5
535.923,1565.7
536.059,1554.3
536.195,1530.0
536.331,1511.9
536.467,1516.7
536.603,1505.2
536.739,1500.5
536.876,1492.1
537.012,1498.3
537.148,1493.5
537.284,1493.0
537.42,1488.6
537.556,1497.1
537.692,1486.9
537.828,1491.2
537.964,1492.2
538.1,1500.3
538.236,1497.8
538.372,1505.4
538.508,1502.8
538.644,1499.6
538.78,1512.1
538.916,1506.4
539.052,1506.0
539.188,1515.5
539.324,1521.5
539.46,1522.8
539.596,1527.6
539.732,1535.1
539.868,1557.5
540.004,1560.4
540.14,1558.1
540.275,1543.4
540.411,1534.3
540.547,1535.8
540.683,1544.5
540.819,1534.7
540.955,1533.5
541.091,1531.3
541.227,1543.4
541.362,1536.3
541.498,1549.2
541.634,1539.8
541.77,1550.3
541.906,1545.0
542.041,1551.7
542.177,1554.2
542.313,1552.1
542.449,1555.3
542.585,1560.2
542.72,1563.2
542.856,1566.9
542.992,1566.7
543.128,1574.5
543.263,1571.3
543.399,1583.7
543.535,1585.2
543.67,1589.3
543.806,1599.1
543.942,1585.0
544.078,1602.3
544.213,1600.5
544.349,1592.7
544.485,1600.4
544.62,1602.7
544.756,1608.8
544.892,1613.0
545.027,1602.9
545.163,1621.8
545.298,1611.9
545.434,1622.7
545.57,1617.8
545.705,1632.7
545.841,1631.5
545.976,1627.8
546.112,1632.9
546.248,1632.6
546.383,1634.0
546.519,1650.7
546.654,1639.9
546.79,1643.3
546.925,1648.6
547.061,1635.5
547.196,1640.7
547.332,1653.1
547.467,1656.4
547.603,1663.6
547.738,1655.5
547.874,1652.0
548.009,1658.8
548.145,1657.1
548.28,1660.5
548.416,1672.3
548.551,1669.7
548.686,1676.0
548.822,1681.5
548.957,1699.9
549.093,1692.4
549.228,1680.1
549.363,1697.3
549.499,1703.5
549.634,1686.0
549.77,1688.1
549.905,1693.5
550.04,1698.5
550.176,1696.3
550.311,1704.2
550.446,1713.7
550.582,1797.0
550.717,1902.4
550.852,1818.9
550.988,1741.5
551.123,1721.2
551.258,1717.7
551.394,1712.6
551.529,1731.3
551.664,1733.6
551.799,1723.3
551.935,1737.0
552.07,1740.4
552.205,1734.8
552.34,1727.0
552.476,1743.7
552.611,1739.1
552.746,1777.7
552.881,1797.2
553.016,1794.5
553.152,1760.0
553.287,1752.7
553.422,1749.6
553.557,1767.2
553.692,1761.2
553.827,1771.5
553.963,1778.8
554.098,1782.0
554.233,1768.6
554.368,1771.8
554.503,1784.5
554.638,1783.5
554.773,1787.3
554.908,1791.4
555.043,1794.9
555.179,1801.9
555.314,1811.1
555.449,1822.5
555.584,1816.4
555.719,1844.2
555.854,1835.2
555.989,1829.5
556.124,1841.0
556.259,1842.0
556.394,1849.3
556.529,1860.5
556.664,1874.0
556.799,1865.4
556.934,1864.9
557.069,1889.3
557.204,1904.8
557.339,1947.9
557.474,2031.4
557.609,2104.9
557.744,2098.9
557.879,1996.4
558.014,1921.6
558.149,1900.0
558.284,1905.3
558.419,1892.2
558.553,1888.3
558.688,1879.7
558.823,1882.1
558.958,1873.3
559.093,1876.0
559.228,1877.1
559.363,1865.6
559.498,1863.8
559.632,1878.0
559.767,1874.4
559.902,1890.6
560.037,1887.0
560.172,1901.3
560.307,1895.7
560.441,1911.0
560.576,1906.6
560.711,1901.9
560.846,1913.2
560.981,1917.1
561.115,1903.0
561.25,1913.9
561.385,1911.6
561.52,1930.1
561.654,1933.3
561.789,1939.1
561.924,1949.9
562.059,1962.0
562.193,1983.2
562.328,1958.2
562.463,1959.7
562.598,1967.5
562.732,1960.6
562.867,1963.1
563.002,1952.7
563.136,1978.6
563.271,1974.9
563.406,1969.4
563.54,1972.6
563.675,1981.8
563.81,1980.7
563.944,1985.1
564.079,1997.7
564.213,2008.6
564.348,2017.6
564.483,2023.1
564.617,2042.1
564.752,2060.3
564.887,2082.4
565.021,2128.2
565.156,2151.1
565.29,2131.4
565.425,2117.4
565.559,2133.9
565.694,2124.2
565.828,2142.5
565.963,2133.1
566.098,2125.6
566.232,2095.6
566.367,2077.8
566.501,2059.8
566.636,2045.3
566.77,2047.1
566.905,2046.5
567.039,2049.8
567.174,2046.6
567.308,2047.7
567.443,2053.8
567.577,2079.9
567.711,2111.9
567.846,2116.1
567.98,2112.0
568.115,2081.8
568.249,2086.2
568.384,2095.1
568.518,2072.2
568.652,2083.6
568.787,2082.4
568.921,2086.2
569.056,2082.7
569.19,2087.8
569.324,2087.0
569.459,2112.1
569.593,2122.9
569.727,2141.8
569.862,2131.2
569.996,2127.5
570.131,2132.4
570.265,2148.7
570.399,2179.9
570.534,2192.3
570.668,2216.5
570.802,2270.1
570.936,2298.2
571.071,2381.5
571.205,2432.5
571.339,2476.6
571.474,2496.2
571.608,2441.0
571.742,2363.5
571.876,2309.3
572.011,2293.7
572.145,2261.2
572.279,2236.6
572.413,2200.3
572.548,2185.2
572.682,2186.1
572.816,2188.8
572.95,2180.3
573.084,2188.3
573.219,2188.7
573.353,2185.7
573.487,2185.9
573.621,2203.9
573.755,2207.6
573.889,2199.2
574.024,2210.9
574.158,2218.7
574.292,2224.4
574.426,2220.8
574.56,2212.5
574.694,2224.9
574.828,2220.5
574.963,2223.9
575.097,2237.8
575.231,2255.7
575.365,2282.0
575.499,2303.6
575.633,2294.9
575.767,2256.1
575.901,2237.2
576.035,2246.8
576.169,2248.3
576.303,2260.0
576.437,2256.6
576.571,2283.5
576.706,2278.3
576.84,2282.8
576.974,2273.3
577.108,2285.2
577.242,2281.2
577.376,2292.4
577.51,2282.5
577.644,2291.9
577.778,2255.9
577.912,2270.1
578.046,2282.7
578.179,2271.9
578.313,2271.5
578.447,2272.6
578.581,2284.6
578.715,2298.6
578.849,2294.0
578.983,2274.0
579.117,2295.6
579.251,2304.8
579.385,2288.5
579.519,2301.8
579.653,2310.6
579.787,2308.1
579.921,2296.8
580.054,2307.5
580.188,2299.7
580.322,2307.1
580.456,2305.0
580.59,2313.9
580.724,2331.1
580.858,2331.9
580.991,2343.3
581.125,2345.4
581.259,2341.2
581.393,2357.9
581.527,2389.1
581.661,2446.0
581.794,2585.7
581.928,2828.8
582.062,3360.3
582.196,3860.3
582.33,3566.9
582.463,2864.5
582.597,2529.9
582.731,2437.6
582.865,2399.3
582.998,2398.1
583.132,2381.3
583.266,2394.7
583.4,2368.9
583.533,2365.7
583.667,2372.0
583.801,2377.4
583.935,2378.9
584.068,2377.6
584.202,2387.4
584.336,2383.7
584.469,2402.0
584.603,2394.4
584.737,2391.5
584.87,2410.0
585.004,2402.3
585.138,2413.7
585.271,2445.0
585.405,2497.2
585.539,2586.7
585.672,2732.4
585.806,2927.9
585.94,3096.3
586.073,3152.4
586.207,3077.1
586.34,2948.6
586.474,2833.5
586.608,2694.4
586.741,2588.1
586.875,2521.8
587.008,2482.6
587.142,2479.2
587.276,2470.1
587.409,2459.7
587.543,2444.3
587.676,2432.2
587.81,2435.8
587.943,2435.9
588.077,2444.1
588.21,2431.9
588.344,2430.0
588.478,2448.4
588.611,2424.5
588.745,2434.4
588.878,2416.9
589.012,2416.0
589.145,2434.6
589.279,2443.9
589.412,2436.9
589.546,2417.7
589.679,2439.0
589.812,2427.3
589.946,2438.3
590.079,2442.2
590.213,2429.4
590.346,2428.5
590.48,2430.1
590.613,2440.7
590.747,2446.2
590.88,2432.7
591.013,2445.2
591.147,2472.5
591.28,2461.2
591.414,2464.1
591.547,2445.0
591.68,2456.5
591.814,2452.8
591.947,2452.8
592.081,2442.5
592.214,2463.3
592.347,2461.7
592.481,2454.7
592.614,2446.8
592.747,2457.5
592.881,2463.1
593.014,2456.5
593.147,2456.7
593.281,2444.3
593.414,2455.1
593.547,2452.5
593.681,2460.3
593.814,2456.1
593.947,2456.8
594.081,2455.7
594.214,2458.1
594.347,2477.0
594.48,2458.4
594.614,2472.9
594.747,2476.9
594.88,2484.4
595.014,2476.7
595.147,2474.9
595.28,2477.7
595.413,2486.3
595.547,2475.7
595.68,2504.2
595.813,2497.4
595.946,2495.2
596.079,2504.5
596.213,2498.3
596.346,2496.4
596.479,2487.7
596.612,2491.5
596.745,2485.2
596.879,2512.3
597.012,2513.0
597.145,2521.7
597.278,2521.4
597.411,2521.8
597.545,2515.2
597.678,2529.1
597.811,2522.3
597.944,2540.0
598.077,2534.3
598.21,2534.7
598.343,2552.5
598.476,2536.5
598.61,2541.2
598.743,2538.0
598.876,2566.2
599.009,2567.4
599.142,2568.1
599.275,2549.8
599.408,2568.2
599.541,2559.8
599.674,2556.4
599.807,2559.7
599.941,2549.8
600.074,2553.7
600.207,2555.5
600.34,2546.7
600.473,2557.2
600.606,2550.5
600.739,2557.0
600.872,2545.7
601.005,2537.8
601.138,2554.0
601.271,2563.7
601.404,2558.5
601.537,2565.3
601.67,2560.1
601.803,2556.4
601.936,2556.2
602.069,2559.1
602.202,2579.3
602.335,2578.7
602.468,2568.2
602.601,2581.3
602.734,2584.8
602.867,2584.6
603.0,2579.5
603.133,2594.1
603.266,2581.8
603.399,2589.8
603.532,2585.5
603.664,2616.8
603.797,2605.3
603.93,2607.9
604.063,2607.2
604.196,2606.2
604.329,2602.8
604.462,2604.5
604.595,2600.6
604.728,2597.5
604.861,2592.7
604.994,2597.5
605.126,2592.3
605.259,2580.9
605.392,2572.0
605.525,2584.9
605.658,2586.4
605.791,2578.1
605.924,2580.2
606.056,2564.5
606.189,2568.3
606.322,2584.0
606.455,2563.5
606.588,2577.8
606.721,2589.7
606.853,2600.3
606.986,2614.4
607.119,2607.2
607.252,2617.0
607.385,2613.1
607.517,2617.1
607.65,2618.8
607.783,2630.2
607.916,2629.0
608.049,2645.8
608.181,2640.1
608.314,2659.2
608.447,2633.9
608.58,2663.4
608.712,2661.3
608.845,2665.7
608.978,2660.5
609.111,2678.1
609.243,2656.6
609.376,2661.7
609.509,2693.1
609.641,2680.1
609.774,2672.3
609.907,2693.6
610.04,2691.3
610.172,2687.8
610.305,2686.2
610.438,2690.9
610.57,2692.2
610.703,2675.3
610.836,2689.0
610.968,2704.7
611.101,2705.2
611.234,2710.5
611.366,2700.7
611.499,2725.4
611.632,2730.8
611.764,2730.9
611.897,2735.9
612.03,2745.0
612.162,2755.7
612.295,2762.7
612.428,2764.1
612.56,2782.8
612.693,2795.9
612.825,2793.5
612.958,2819.1
613.091,2826.1
613.223,2835.0
613.356,2834.8
613.488,2837.6
613.621,2842.3
613.754,2855.1
613.886,2865.2
614.019,2865.5
614.151,2869.9
614.284,2869.1
614.416,2874.2
614.549,2877.6
614.681,2874.2
614.814,2905.4
614.947,2878.3
615.079,2878.4
615.212,2898.2
615.344,2893.4
615.477,2887.8
615.609,2900.0
615.742,2903.1
615.874,2904.4
616.007,2913.4
616.139,2925.0
616.272,2927.9
616.404,2914.2
616.537,2939.7
616.669,2951.2
616.802,2967.9
616.934,2947.7
617.067,2976.4
617.199,2983.7
617.332,2996.0
617.464,2989.2
617.596,3008.8
617.729,3017.6
617.861,3017.3
617.994,3022.3
618.126,3029.4
618.259,3040.3
618.391,3041.8
618.524,3052.4
618.656,3046.5
618.788,3057.0
618.921,3046.1
619.053,3042.8
619.186,3063.9
619.318,3067.8
619.45,3073.7
619.583,3073.6
619.715,3083.8
619.848,3075.5
619.98,3079.7
620.112,3078.5
620.245,3101.3
620.377,3083.3
620.509,3088.1
620.642,3097.4
620.774,3127.5
620.907,3100.3
621.039,3122.6
621.171,3139.4
621.304,3123.9
621.436,3124.9
621.568,3127.0
621.701,3166.2
621.833,3158.3
621.965,3156.6
622.097,3159.3
622.23,3177.4
622.362,3193.2
622.494,3181.0
622.627,3185.6
622.759,3229.5
622.891,3240.2
623.024,3249.7
623.156,3232.5
623.288,3261.7
623.42,3256.2
623.553,3261.7
623.685,3266.8
623.817,3288.0
623.949,3290.6
624.082,3294.5
624.214,3312.3
624.346,3306.3
624.479,3315.3
624.611,3308.1
624.743,3337.8
624.875,3329.2
625.007,3337.9
625.14,3341.3
625.272,3348.5
625.404,3347.5
625.536,3352.0
625.669,3356.2
625.801,3347.1
625.933,3364.8
626.065,3382.1
626.197,3372.1
626.33,3373.9
626.462,3382.1
626.594,3379.1
626.726,3393.5
626.858,3402.0
626.99,3422.5
627.123,3416.5
627.255,3435.3
627.387,3424.2
627.519,3430.1
627.651,3442.3
627.783,3451.8
627.916,3437.1
628.048,3463.1
628.18,3455.2
628.312,3480.4
628.444,3481.2
628.576,3491.2
628.708,3487.9
628.84,3516.8
628.973,3519.9
629.105,3530.6
629.237,3536.2
629.369,3546.0
629.501,3557.5
629.633,3561.0
629.765,3594.4
629.897,3592.2
630.029,3578.3
630.161,3594.2
630.294,3601.7
630.426,3633.1
630.558,3605.2
630.69,3622.8
630.822,3633.8
630.954,3663.4
631.086,3666.9
631.218,3682.7
631.35,3707.0
631.482,3760.5
631.614,3768.5
631.746,3804.9
631.878,3827.4
632.01,3818.4
632.142,3805.7
632.274,3795.8
632.406,3761.8
632.538,3751.4
632.67,3766.2
632.802,3776.7
632.934,3765.2
633.066,3756.0
633.198,3754.9
633.33,3752.9
633.462,3759.2
633.594,3778.4
633.726,3758.7
633.858,3740.4
633.99,3757.8
634.122,3738.4
634.254,3749.0
634.386,3746.4
634.518,3763.2
634.65,3750.0
634.782,3757.6
634.914,3772.3
635.046,3766.6
635.178,3794.6
635.31,3796.2
635.442,3815.6
635.574,3805.4
635.706,3843.4
635.838,3879.0
635.97,3926.2
636.102,3933.9
636.234,3979.2
636.365,4054.0
636.497,4066.3
636.629,4106.5
636.761,4079.9
636.893,4025.1
637.025,3981.3
637.157,3934.2
637.289,3919.7
637.421,3887.2
637.553,3894.8
637.685,3900.4
637.816,3901.9
637.948,3899.8
638.08,3895.3
638.212,3898.4
638.344,3914.2
638.476,3914.3
638.608,3926.8
638.74,3936.6
638.871,3949.5
639.003,3922.9
639.135,3946.7
639.267,3949.6
639.399,3962.4
639.531,3951.9
639.662,3963.8
639.794,3945.0
639.926,3943.5
640.058,3987.8
640.19,3978.1
640.322,3979.0
640.453,3970.0
640.585,3978.4
640.717,3975.9
640.849,3991.7
640.981,4012.1
641.113,4015.8
641.244,3999.9
641.376,4013.4
641.508,4019.2
641.64,4018.3
641.772,4025.1
641.903,4045.5
642.035,4010.3
642.167,4045.0
642.299,4026.4
642.43,4057.8
642.562,4064.9
642.694,4053.0
642.826,4048.3
642.958,4044.5
643.089,4034.3
643.221,4033.7
643.353,4029.0
643.485,4055.0
643.616,4014.8
643.748,4024.5
643.88,4018.0
644.012,4014.4
644.143,4005.2
644.275,4018.4
644.407,4021.6
644.538,4027.2
644.67,4024.7
644.802,4018.6
644.934,4020.1
645.065,4014.3
645.197,4033.2
645.329,4039.0
645.461,4045.9
645.592,4032.6
645.724,4054.9
645.856,4054.8
645.987,4059.5
646.119,4069.3
646.251,4054.4
646.382,4058.6
646.514,4069.6
646.646,4047.1
646.777,4101.2
646.909,4079.5
647.041,4093.9
647.172,4089.0
647.304,4081.9
647.436,4118.6
647.567,4128.3
647.699,4107.2
647.831,4114.9
647.962,4109.2
648.094,4110.4
648.226,4104.3
648.357,4095.5
648.489,4107.2
648.621,4116.2
648.752,4102.4
648.884,4124.8
649.016,4101.0
649.147,4104.3
649.279,4106.3
649.411,4107.1
649.542,4087.7
649.674,4111.7
649.805,4086.8
649.937,4082.6
650.069,4106.5
650.2,4111.5
650.332,4111.2
650.463,4081.2
650.595,4111.6
650.727,4113.0
650.858,4094.9
650.99,4092.1
651.121,4099.2
651.253,4087.0
651.385,4118.2
651.516,4139.3
651.648,4123.4
651.779,4137.9
651.911,4136.2
652.043,4155.3
652.174,4149.8
652.306,4132.7
652.437,4136.9
652.569,4144.7
652.7,4144.5
652.832,4161.9
652.963,4158.8
653.095,4146.4
653.227,4157.3
653.358,4185.8
653.49,4169.4
653.621,4163.1
653.753,4159.2
653.884,4156.5
654.016,4161.1
654.147,4182.7
654.279,4184.6
654.41,4153.4
654.542,4152.3
654.674,4146.1
654.805,4160.2
654.937,4165.6
655.068,4180.7
655.2,4177.7
655.331,4163.6
655.463,4167.3
655.594,4176.8
655.726,4193.5
655.857,4166.3
655.989,4162.8
656.12,4163.8
656.252,4187.7
656.383,4181.4
656.515,4175.5
656.646,4186.4
656.778,4188.8
656.909,4190.7
657.041,4196.7
657.172,4193.1
657.304,4194.9
657.435,4188.9
657.567,4201.8
657.698,4219.4
657.829,4222.4
657.961,4197.5
658.092,4222.0
658.224,4227.2
658.355,4229.2
658.487,4217.4
658.618,4242.6
658.75,4222.7
658.881,4222.2
659.013,4210.5
659.144,4243.6
659.275,4247.2
659.407,4255.6
659.538,4242.7
659.67,4210.1
659.801,4234.2
659.933,4237.4
660.064,4229.8
660.196,4216.3
660.327,4203.1
660.458,4213.8
660.59,4228.1
660.721,4211.5
660.853,4214.8
660.984,4201.2
661.116,4193.2
661.247,4200.2
661.378,4190.3
661.51,4181.4
661.641,4171.9
661.773,4189.2
661.904,4197.7
662.035,4167.7
662.167,4145.9
662.298,4154.7
662.43,4164.7
662.561,4158.0
662.692,4201.4
662.824,4173.7
662.955,4163.7
663.087,4172.0
