cm-1,A
4000.0,0.0017
3999.0,0.0016
3998.0,0.0015
3997.0,0.0014
3996.0,0.0013
3995.0,0.0014
3994.0,0.0014
3993.0,0.0015
3992.0,0.0015
3991.0,0.0015
3990.0,0.0015
3989.0,0.0015
3988.0,0.0015
3987.0,0.0016
3986.0,0.0016
3985.0,0.0016
3984.0,0.0016
3983.0,0.0016
3982.0,0.0015
3981.0,0.0015
3980.0,0.0014
3979.0,0.0015
3978.0,0.0015
3977.0,0.0014
3976.0,0.0014
3975.0,0.0013
3974.0,0.0012
3973.0,0.0012
3972.0,0.0013
3971.0,0.0014
3970.0,0.0015
3969.0,0.0016
3968.0,0.0016
3967.0,0.0017
3966.0,0.0017
3965.0,0.0016
3964.0,0.0016
3963.0,0.0016
3962.0,0.0016
3961.0,0.0016
3960.0,0.0016
3959.0,0.0016
3958.0,0.0016
3957.0,0.0016
3956.0,0.0016
3955.0,0.0016
3954.0,0.0016
3953.0,0.0015
3952.0,0.0015
3951.0,0.0015
3950.0,0.0015
3949.0,0.0015
3948.0,0.0015
3947.0,0.0015
3946.0,0.0015
3945.0,0.0015
3944.0,0.0014
3943.0,0.0013
3942.0,0.0013
3941.0,0.0014
3940.0,0.0016
3939.0,0.0017
3938.0,0.0017
3937.0,0.0017
3936.0,0.0016
3935.0,0.0015
3934.0,0.0014
3933.0,0.0013
3932.0,0.0014
3931.0,0.0015
3930.0,0.0015
3929.0,0.0015
3928.0,0.0014
3927.0,0.0012
3926.0,0.0012
3925.0,0.0011
3924.0,0.0012
3923.0,0.0012
3922.0,0.0012
3921.0,0.0013
3920.0,0.0014
3919.0,0.0015
3918.0,0.0015
3917.0,0.0015
3916.0,0.0014
3915.0,0.0014
3914.0,0.0014
3913.0,0.0014
3912.0,0.0015
3911.0,0.0015
3910.0,0.0016
3909.0,0.0016
3908.0,0.0016
3907.0,0.0016
3906.0,0.0016
3905.0,0.0016
3904.0,0.0016
3903.0,0.0016
3902.0,0.0016
3901.0,0.0015
3900.0,0.0014
3899.0,0.0014
3898.0,0.0014
3897.0,0.0014
3896.0,0.0015
3895.0,0.0016
3894.0,0.0017
3893.0,0.0017
3892.0,0.0016
3891.0,0.0015
3890.0,0.0015
3889.0,0.0015
3888.0,0.0014
3887.0,0.0014
3886.0,0.0014
3885.0,0.0014
3884.0,0.0013
3883.0,0.0012
3882.0,0.0013
3881.0,0.0014
3880.0,0.0015
3879.0,0.0016
3878.0,0.0016
3877.0,0.0015
3876.0,0.0015
3875.0,0.0016
3874.0,0.0017
3873.0,0.0017
3872.0,0.0015
3871.0,0.0014
3870.0,0.0013
3869.0,0.0014
3868.0,0.0015
3867.0,0.0015
3866.0,0.0016
3865.0,0.0017
3864.0,0.0017
3863.0,0.0016
3862.0,0.0016
3861.0,0.0016
3860.0,0.0016
3859.0,0.0016
3858.0,0.0017
3857.0,0.0018
3856.0,0.0019
3855.0,0.0019
3854.0,0.0018
3853.0,0.0018
3852.0,0.0019
3851.0,0.0019
3850.0,0.0018
3849.0,0.0017
3848.0,0.0016
3847.0,0.0015
3846.0,0.0014
3845.0,0.0013
3844.0,0.0012
3843.0,0.0012
3842.0,0.0011
3841.0,0.001
3840.0,0.001
3839.0,0.0012
3838.0,0.0014
3837.0,0.0016
3836.0,0.0017
3835.0,0.0017
3834.0,0.0017
3833.0,0.0016
3832.0,0.0016
3831.0,0.0016
3830.0,0.0016
3829.0,0.0016
3828.0,0.0017
3827.0,0.0017
3826.0,0.0018
3825.0,0.0018
3824.0,0.0018
3823.0,0.0017
3822.0,0.0017
3821.0,0.0016
3820.0,0.0016
3819.0,0.0015
3818.0,0.0014
3817.0,0.0014
3816.0,0.0015
3815.0,0.0016
3814.0,0.0017
3813.0,0.0017
3812.0,0.0018
3811.0,0.0018
3810.0,0.0018
3809.0,0.0017
3808.0,0.0016
3807.0,0.0015
3806.0,0.0014
3805.0,0.0014
3804.0,0.0013
3803.0,0.0013
3802.0,0.0014
3801.0,0.0015
3800.0,0.0016
3799.0,0.0016
3798.0,0.0016
3797.0,0.0016
3796.0,0.0017
3795.0,0.0018
3794.0,0.0018
3793.0,0.0017
3792.0,0.0016
3791.0,0.0016
3790.0,0.0016
3789.0,0.0016
3788.0,0.0016
3787.0,0.0016
3786.0,0.0017
3785.0,0.0017
3784.0,0.0017
3783.0,0.0018
3782.0,0.0017
3781.0,0.0017
3780.0,0.0017
3779.0,0.0018
3778.0,0.0018
3777.0,0.0019
3776.0,0.0019
3775.0,0.002
3774.0,0.002
3773.0,0.0021
3772.0,0.0021
3771.0,0.002
3770.0,0.0019
3769.0,0.0018
3768.0,0.0016
3767.0,0.0016
3766.0,0.0015
3765.0,0.0016
3764.0,0.0017
3763.0,0.0018
3762.0,0.0018
3761.0,0.0019
3760.0,0.0019
3759.0,0.0019
3758.0,0.0018
3757.0,0.0018
3756.0,0.0018
3755.0,0.0019
3754.0,0.0021
3753.0,0.0023
3752.0,0.0025
3751.0,0.0026
3750.0,0.0025
3749.0,0.0024
3748.0,0.0024
3747.0,0.0025
3746.0,0.0027
3745.0,0.003
3744.0,0.0033
3743.0,0.0034
3742.0,0.0033
3741.0,0.0032
3740.0,0.0032
3739.0,0.0033
3738.0,0.0034
3737.0,0.0036
3736.0,0.0037
3735.0,0.0036
3734.0,0.0035
3733.0,0.0034
3732.0,0.0036
3731.0,0.0037
3730.0,0.004
3729.0,0.0042
3728.0,0.0043
3727.0,0.0043
3726.0,0.0041
3725.0,0.0039
3724.0,0.0036
3723.0,0.0035
3722.0,0.0035
3721.0,0.0034
3720.0,0.0033
3719.0,0.0031
3718.0,0.0028
3717.0,0.0026
3716.0,0.0025
3715.0,0.0025
3714.0,0.0027
3713.0,0.0031
3712.0,0.0038
3711.0,0.0042
3710.0,0.0042
3709.0,0.0041
3708.0,0.0039
3707.0,0.0037
3706.0,0.0036
3705.0,0.0035
3704.0,0.0033
3703.0,0.0031
3702.0,0.003
3701.0,0.0031
3700.0,0.0032
3699.0,0.0033
3698.0,0.0033
3697.0,0.0033
3696.0,0.0033
3695.0,0.0032
3694.0,0.0032
3693.0,0.003
3692.0,0.0028
3691.0,0.0024
3690.0,0.0022
3689.0,0.0022
3688.0,0.0025
3687.0,0.0027
3686.0,0.0028
3685.0,0.0028
3684.0,0.0027
3683.0,0.0027
3682.0,0.0027
3681.0,0.0027
3680.0,0.0027
3679.0,0.0026
3678.0,0.0024
3677.0,0.002
3676.0,0.0017
3675.0,0.0017
3674.0,0.0018
3673.0,0.002
3672.0,0.0021
3671.0,0.0023
3670.0,0.0024
3669.0,0.0024
3668.0,0.0023
3667.0,0.0023
3666.0,0.0022
3665.0,0.0021
3664.0,0.0021
3663.0,0.0021
3662.0,0.0022
3661.0,0.0023
3660.0,0.0023
3659.0,0.0023
3658.0,0.0023
3657.0,0.0023
3656.0,0.0023
3655.0,0.0023
3654.0,0.0023
3653.0,0.0022
3652.0,0.0021
3651.0,0.0021
3650.0,0.0022
3649.0,0.0022
3648.0,0.0022
3647.0,0.0023
3646.0,0.0024
3645.0,0.0024
3644.0,0.0025
3643.0,0.0026
3642.0,0.0027
3641.0,0.0028
3640.0,0.003
3639.0,0.0031
3638.0,0.0032
3637.0,0.0033
3636.0,0.0035
3635.0,0.0037
3634.0,0.0039
3633.0,0.004
3632.0,0.004
3631.0,0.004
3630.0,0.004
3629.0,0.0042
3628.0,0.0042
3627.0,0.0042
3626.0,0.0042
3625.0,0.0041
3624.0,0.0039
3623.0,0.0036
3622.0,0.0032
3621.0,0.0029
3620.0,0.0027
3619.0,0.0028
3618.0,0.0029
3617.0,0.0029
3616.0,0.0028
3615.0,0.0026
3614.0,0.0026
3613.0,0.0027
3612.0,0.0029
3611.0,0.0032
3610.0,0.0036
3609.0,0.004
3608.0,0.0041
3607.0,0.004
3606.0,0.0037
3605.0,0.0035
3604.0,0.0033
3603.0,0.0033
3602.0,0.0034
3601.0,0.0036
3600.0,0.0037
3599.0,0.0037
3598.0,0.0036
3597.0,0.0035
3596.0,0.0035
3595.0,0.0036
3594.0,0.0037
3593.0,0.0038
3592.0,0.0038
3591.0,0.0037
3590.0,0.0036
3589.0,0.0036
3588.0,0.0036
3587.0,0.0037
3586.0,0.0037
3585.0,0.0036
3584.0,0.0035
3583.0,0.0034
3582.0,0.0033
3581.0,0.0032
3580.0,0.0032
3579.0,0.0031
3578.0,0.0031
3577.0,0.0032
3576.0,0.0032
3575.0,0.0032
3574.0,0.0032
3573.0,0.0032
3572.0,0.0031
3571.0,0.0031
3570.0,0.0031
3569.0,0.003
3568.0,0.0029
3567.0,0.0028
3566.0,0.0026
3565.0,0.0027
3564.0,0.0028
3563.0,0.0029
3562.0,0.0031
3561.0,0.0032
3560.0,0.0033
3559.0,0.0033
3558.0,0.0032
3557.0,0.003
3556.0,0.0029
3555.0,0.0027
3554.0,0.0027
3553.0,0.0027
3552.0,0.0028
3551.0,0.003
3550.0,0.003
3549.0,0.0031
3548.0,0.0032
3547.0,0.0032
3546.0,0.0033
3545.0,0.0033
3544.0,0.0032
3543.0,0.0032
3542.0,0.0031
3541.0,0.0031
3540.0,0.0032
3539.0,0.0033
3538.0,0.0034
3537.0,0.0033
3536.0,0.0033
3535.0,0.0032
3534.0,0.0032
3533.0,0.0032
3532.0,0.0032
3531.0,0.0033
3530.0,0.0032
3529.0,0.0032
3528.0,0.0032
3527.0,0.0032
3526.0,0.0032
3525.0,0.0033
3524.0,0.0033
3523.0,0.0033
3522.0,0.0033
3521.0,0.0033
3520.0,0.0033
3519.0,0.0034
3518.0,0.0034
3517.0,0.0035
3516.0,0.0035
3515.0,0.0035
3514.0,0.0034
3513.0,0.0033
3512.0,0.0032
3511.0,0.0032
3510.0,0.0033
3509.0,0.0034
3508.0,0.0035
3507.0,0.0036
3506.0,0.0036
3505.0,0.0035
3504.0,0.0035
3503.0,0.0035
3502.0,0.0035
3501.0,0.0036
3500.0,0.0036
3499.0,0.0036
3498.0,0.0036
3497.0,0.0036
3496.0,0.0037
3495.0,0.0038
3494.0,0.0038
3493.0,0.0038
3492.0,0.0038
3491.0,0.0038
3490.0,0.0038
3489.0,0.0037
3488.0,0.0037
3487.0,0.0036
3486.0,0.0036
3485.0,0.0037
3484.0,0.0037
3483.0,0.0037
3482.0,0.0037
3481.0,0.0037
3480.0,0.0037
3479.0,0.0038
3478.0,0.0038
3477.0,0.0039
3476.0,0.0039
3475.0,0.0038
3474.0,0.0037
3473.0,0.0037
3472.0,0.0037
3471.0,0.0039
3470.0,0.004
3469.0,0.004
3468.0,0.004
3467.0,0.0038
3466.0,0.0036
3465.0,0.0035
3464.0,0.0034
3463.0,0.0035
3462.0,0.0036
3461.0,0.0037
3460.0,0.0038
3459.0,0.0039
3458.0,0.0039
3457.0,0.004
3456.0,0.004
3455.0,0.004
3454.0,0.0041
3453.0,0.0041
3452.0,0.0041
3451.0,0.0041
3450.0,0.004
3449.0,0.0039
3448.0,0.0038
3447.0,0.0038
3446.0,0.0038
3445.0,0.0039
3444.0,0.0039
3443.0,0.0039
3442.0,0.004
3441.0,0.004
3440.0,0.004
3439.0,0.0041
3438.0,0.0042
3437.0,0.0042
3436.0,0.0041
3435.0,0.0041
3434.0,0.004
3433.0,0.0041
3432.0,0.0043
3431.0,0.0046
3430.0,0.0047
3429.0,0.0047
3428.0,0.0045
3427.0,0.0043
3426.0,0.0042
3425.0,0.0042
3424.0,0.0042
3423.0,0.0042
3422.0,0.0043
3421.0,0.0043
3420.0,0.0043
3419.0,0.0044
3418.0,0.0045
3417.0,0.0047
3416.0,0.0048
3415.0,0.0049
3414.0,0.0048
3413.0,0.0046
3412.0,0.0045
3411.0,0.0044
3410.0,0.0043
3409.0,0.0043
3408.0,0.0043
3407.0,0.0043
3406.0,0.0044
3405.0,0.0044
3404.0,0.0045
3403.0,0.0045
3402.0,0.0045
3401.0,0.0045
3400.0,0.0044
3399.0,0.0044
3398.0,0.0043
3397.0,0.0044
3396.0,0.0044
3395.0,0.0044
3394.0,0.0044
3393.0,0.0043
3392.0,0.0044
3391.0,0.0044
3390.0,0.0045
3389.0,0.0046
3388.0,0.0047
3387.0,0.0047
3386.0,0.0046
3385.0,0.0045
3384.0,0.0044
3383.0,0.0044
3382.0,0.0044
3381.0,0.0045
3380.0,0.0044
3379.0,0.0044
3378.0,0.0043
3377.0,0.0043
3376.0,0.0042
3375.0,0.0042
3374.0,0.0043
3373.0,0.0044
3372.0,0.0046
3371.0,0.0048
3370.0,0.0049
3369.0,0.005
3368.0,0.005
3367.0,0.005
3366.0,0.005
3365.0,0.005
3364.0,0.0049
3363.0,0.0047
3362.0,0.0046
3361.0,0.0045
3360.0,0.0045
3359.0,0.0046
3358.0,0.0047
3357.0,0.0048
3356.0,0.0048
3355.0,0.0047
3354.0,0.0046
3353.0,0.0045
3352.0,0.0045
3351.0,0.0046
3350.0,0.0047
3349.0,0.0048
3348.0,0.0049
3347.0,0.0049
3346.0,0.0048
3345.0,0.0046
3344.0,0.0044
3343.0,0.0043
3342.0,0.0043
3341.0,0.0044
3340.0,0.0044
3339.0,0.0045
3338.0,0.0044
3337.0,0.0044
3336.0,0.0044
3335.0,0.0045
3334.0,0.0046
3333.0,0.0046
3332.0,0.0046
3331.0,0.0045
3330.0,0.0045
3329.0,0.0045
3328.0,0.0046
3327.0,0.0046
3326.0,0.0047
3325.0,0.0047
3324.0,0.0047
3323.0,0.0047
3322.0,0.0047
3321.0,0.0047
3320.0,0.0047
3319.0,0.0047
3318.0,0.0047
3317.0,0.0047
3316.0,0.0046
3315.0,0.0045
3314.0,0.0044
3313.0,0.0043
3312.0,0.0042
3311.0,0.0042
3310.0,0.0042
3309.0,0.0043
3308.0,0.0044
3307.0,0.0044
3306.0,0.0044
3305.0,0.0044
3304.0,0.0044
3303.0,0.0044
3302.0,0.0044
3301.0,0.0045
3300.0,0.0045
3299.0,0.0045
3298.0,0.0046
3297.0,0.0046
3296.0,0.0046
3295.0,0.0046
3294.0,0.0045
3293.0,0.0045
3292.0,0.0045
3291.0,0.0045
3290.0,0.0046
3289.0,0.0046
3288.0,0.0045
3287.0,0.0045
3286.0,0.0045
3285.0,0.0046
3284.0,0.0046
3283.0,0.0046
3282.0,0.0046
3281.0,0.0046
3280.0,0.0045
3279.0,0.0045
3278.0,0.0045
3277.0,0.0045
3276.0,0.0045
3275.0,0.0046
3274.0,0.0046
3273.0,0.0046
3272.0,0.0046
3271.0,0.0045
3270.0,0.0045
3269.0,0.0045
3268.0,0.0045
3267.0,0.0044
3266.0,0.0044
3265.0,0.0044
3264.0,0.0044
3263.0,0.0045
3262.0,0.0046
3261.0,0.0047
3260.0,0.0048
3259.0,0.0047
3258.0,0.0046
3257.0,0.0045
3256.0,0.0045
3255.0,0.0045
3254.0,0.0045
3253.0,0.0045
3252.0,0.0044
3251.0,0.0043
3250.0,0.0042
3249.0,0.0042
3248.0,0.0043
3247.0,0.0044
3246.0,0.0045
3245.0,0.0046
3244.0,0.0046
3243.0,0.0046
3242.0,0.0045
3241.0,0.0045
3240.0,0.0044
3239.0,0.0044
3238.0,0.0044
3237.0,0.0045
3236.0,0.0045
3235.0,0.0045
3234.0,0.0045
3233.0,0.0045
3232.0,0.0045
3231.0,0.0044
3230.0,0.0044
3229.0,0.0044
3228.0,0.0044
3227.0,0.0044
3226.0,0.0044
3225.0,0.0043
3224.0,0.0042
3223.0,0.0042
3222.0,0.0042
3221.0,0.0043
3220.0,0.0043
3219.0,0.0044
3218.0,0.0044
3217.0,0.0045
3216.0,0.0046
3215.0,0.0047
3214.0,0.0047
3213.0,0.0047
3212.0,0.0046
3211.0,0.0045
3210.0,0.0044
3209.0,0.0044
3208.0,0.0045
3207.0,0.0045
3206.0,0.0046
3205.0,0.0046
3204.0,0.0045
3203.0,0.0045
3202.0,0.0044
3201.0,0.0044
3200.0,0.0045
3199.0,0.0046
3198.0,0.0046
3197.0,0.0045
3196.0,0.0044
3195.0,0.0044
3194.0,0.0044
3193.0,0.0044
3192.0,0.0045
3191.0,0.0046
3190.0,0.0045
3189.0,0.0044
3188.0,0.0043
3187.0,0.0041
3186.0,0.0041
3185.0,0.0041
3184.0,0.0041
3183.0,0.0041
3182.0,0.0041
3181.0,0.0041
3180.0,0.0041
3179.0,0.0041
3178.0,0.0041
3177.0,0.0041
3176.0,0.0041
3175.0,0.0041
3174.0,0.0041
3173.0,0.0042
3172.0,0.0041
3171.0,0.0041
3170.0,0.004
3169.0,0.0039
3168.0,0.0038
3167.0,0.0038
3166.0,0.0038
3165.0,0.0039
3164.0,0.0041
3163.0,0.0042
3162.0,0.0042
3161.0,0.0042
3160.0,0.0042
3159.0,0.0041
3158.0,0.0041
3157.0,0.0042
3156.0,0.0043
3155.0,0.0043
3154.0,0.0042
3153.0,0.0041
3152.0,0.004
3151.0,0.004
3150.0,0.004
3149.0,0.0041
3148.0,0.0042
3147.0,0.0042
3146.0,0.0042
3145.0,0.0042
3144.0,0.0041
3143.0,0.0041
3142.0,0.0041
3141.0,0.0041
3140.0,0.0041
3139.0,0.0041
3138.0,0.004
3137.0,0.004
3136.0,0.0039
3135.0,0.0039
3134.0,0.004
3133.0,0.004
3132.0,0.004
3131.0,0.0039
3130.0,0.0039
3129.0,0.004
3128.0,0.004
3127.0,0.0039
3126.0,0.0038
3125.0,0.0037
3124.0,0.0037
3123.0,0.0037
3122.0,0.0037
3121.0,0.0038
3120.0,0.0039
3119.0,0.0039
3118.0,0.0039
3117.0,0.0039
3116.0,0.0039
3115.0,0.0038
3114.0,0.0038
3113.0,0.0037
3112.0,0.0037
3111.0,0.0037
3110.0,0.0037
3109.0,0.0038
3108.0,0.004
3107.0,0.0042
3106.0,0.0043
3105.0,0.0043
3104.0,0.0042
3103.0,0.0041
3102.0,0.0041
3101.0,0.0041
3100.0,0.0041
3099.0,0.004
3098.0,0.0039
3097.0,0.0038
3096.0,0.0037
3095.0,0.0037
3094.0,0.0037
3093.0,0.0038
3092.0,0.0039
3091.0,0.004
3090.0,0.004
3089.0,0.004
3088.0,0.004
3087.0,0.0041
3086.0,0.0042
3085.0,0.0042
3084.0,0.0042
3083.0,0.0042
3082.0,0.0042
3081.0,0.0042
3080.0,0.0042
3079.0,0.0041
3078.0,0.004
3077.0,0.0039
3076.0,0.0039
3075.0,0.0039
3074.0,0.0038
3073.0,0.0038
3072.0,0.0037
3071.0,0.0037
3070.0,0.0037
3069.0,0.0038
3068.0,0.0039
3067.0,0.0041
3066.0,0.0042
3065.0,0.0043
3064.0,0.0044
3063.0,0.0044
3062.0,0.0044
3061.0,0.0044
3060.0,0.0043
3059.0,0.0043
3058.0,0.0043
3057.0,0.0043
3056.0,0.0043
3055.0,0.0043
3054.0,0.0042
3053.0,0.0042
3052.0,0.0041
3051.0,0.0041
3050.0,0.004
3049.0,0.0039
3048.0,0.0039
3047.0,0.0039
3046.0,0.0039
3045.0,0.0039
3044.0,0.0039
3043.0,0.0039
3042.0,0.0039
3041.0,0.004
3040.0,0.004
3039.0,0.004
3038.0,0.0041
3037.0,0.0041
3036.0,0.0041
3035.0,0.0042
3034.0,0.0042
3033.0,0.0043
3032.0,0.0043
3031.0,0.0044
3030.0,0.0045
3029.0,0.0046
3028.0,0.0049
3027.0,0.005
3026.0,0.0051
3025.0,0.0052
3024.0,0.0052
3023.0,0.0052
3022.0,0.0053
3021.0,0.0054
3020.0,0.0053
3019.0,0.0052
3018.0,0.005
3017.0,0.0047
3016.0,0.0045
3015.0,0.0044
3014.0,0.0043
3013.0,0.0043
3012.0,0.0042
3011.0,0.0042
3010.0,0.0043
3009.0,0.0044
3008.0,0.0045
3007.0,0.0045
3006.0,0.0045
3005.0,0.0044
3004.0,0.0044
3003.0,0.0043
3002.0,0.0043
3001.0,0.0043
3000.0,0.0043
2999.0,0.0042
2998.0,0.0042
2997.0,0.0042
2996.0,0.0041
2995.0,0.0041
2994.0,0.0041
2993.0,0.004
2992.0,0.004
2991.0,0.0041
2990.0,0.0041
2989.0,0.004
2988.0,0.004
2987.0,0.004
2986.0,0.0041
2985.0,0.0041
2984.0,0.0041
2983.0,0.0041
2982.0,0.004
2981.0,0.0039
2980.0,0.0039
2979.0,0.0038
2978.0,0.0038
2977.0,0.0038
2976.0,0.0037
2975.0,0.0038
2974.0,0.0038
2973.0,0.0038
2972.0,0.0039
2971.0,0.004
2970.0,0.004
2969.0,0.004
2968.0,0.0041
2967.0,0.0041
2966.0,0.0041
2965.0,0.0041
2964.0,0.0041
2963.0,0.004
2962.0,0.0039
2961.0,0.0039
2960.0,0.0039
2959.0,0.004
2958.0,0.0041
2957.0,0.0041
2956.0,0.004
2955.0,0.004
2954.0,0.004
2953.0,0.004
2952.0,0.004
2951.0,0.0041
2950.0,0.0041
2949.0,0.0041
2948.0,0.0041
2947.0,0.0041
2946.0,0.0041
2945.0,0.0042
2944.0,0.0042
2943.0,0.0042
2942.0,0.0042
2941.0,0.0042
2940.0,0.0042
2939.0,0.0042
2938.0,0.0044
2937.0,0.0046
2936.0,0.0048
2935.0,0.0049
2934.0,0.0051
2933.0,0.0052
2932.0,0.0053
2931.0,0.0055
2930.0,0.0056
2929.0,0.0057
2928.0,0.0057
2927.0,0.0058
2926.0,0.0059
2925.0,0.006
2924.0,0.0061
2923.0,0.0062
2922.0,0.0062
2921.0,0.0062
2920.0,0.0062
2919.0,0.0062
2918.0,0.0062
2917.0,0.0062
2916.0,0.0062
2915.0,0.0061
2914.0,0.0061
2913.0,0.0061
2912.0,0.006
2911.0,0.006
2910.0,0.006
2909.0,0.006
2908.0,0.006
2907.0,0.0059
2906.0,0.0059
2905.0,0.0058
2904.0,0.0057
2903.0,0.0056
2902.0,0.0055
2901.0,0.0055
2900.0,0.0055
2899.0,0.0054
2898.0,0.0054
2897.0,0.0054
2896.0,0.0054
2895.0,0.0053
2894.0,0.0053
2893.0,0.0052
2892.0,0.0051
2891.0,0.0051
2890.0,0.0051
2889.0,0.0052
2888.0,0.0052
2887.0,0.0052
2886.0,0.0052
2885.0,0.0051
2884.0,0.0051
2883.0,0.0051
2882.0,0.0051
2881.0,0.0051
2880.0,0.0051
2879.0,0.005
2878.0,0.005
2877.0,0.005
2876.0,0.005
2875.0,0.0049
2874.0,0.0049
2873.0,0.0049
2872.0,0.0048
2871.0,0.0049
2870.0,0.0049
2869.0,0.005
2868.0,0.005
2867.0,0.005
2866.0,0.005
2865.0,0.0049
2864.0,0.0049
2863.0,0.0049
2862.0,0.0049
2861.0,0.0049
2860.0,0.0048
2859.0,0.0048
2858.0,0.0049
2857.0,0.005
2856.0,0.0051
2855.0,0.0051
2854.0,0.0052
2853.0,0.0052
2852.0,0.0053
2851.0,0.0054
2850.0,0.0055
2849.0,0.0056
2848.0,0.0056
2847.0,0.0056
2846.0,0.0055
2845.0,0.0053
2844.0,0.0052
2843.0,0.005
2842.0,0.005
2841.0,0.0051
2840.0,0.0052
2839.0,0.0052
2838.0,0.0051
2837.0,0.005
2836.0,0.0049
2835.0,0.0049
2834.0,0.0048
2833.0,0.0049
2832.0,0.0049
2831.0,0.0049
2830.0,0.0049
2829.0,0.0048
2828.0,0.0048
2827.0,0.0047
2826.0,0.0047
2825.0,0.0046
2824.0,0.0046
2823.0,0.0046
2822.0,0.0047
2821.0,0.0047
2820.0,0.0048
2819.0,0.0048
2818.0,0.0049
2817.0,0.0049
2816.0,0.0048
2815.0,0.0048
2814.0,0.0047
2813.0,0.0047
2812.0,0.0046
2811.0,0.0047
2810.0,0.0047
2809.0,0.0047
2808.0,0.0047
2807.0,0.0047
2806.0,0.0046
2805.0,0.0046
2804.0,0.0046
2803.0,0.0046
2802.0,0.0047
2801.0,0.0047
2800.0,0.0048
2799.0,0.0048
2798.0,0.0048
2797.0,0.0048
2796.0,0.0047
2795.0,0.0047
2794.0,0.0047
2793.0,0.0047
2792.0,0.0047
2791.0,0.0047
2790.0,0.0047
2789.0,0.0047
2788.0,0.0048
2787.0,0.0048
2786.0,0.0049
2785.0,0.0048
2784.0,0.0048
2783.0,0.0048
2782.0,0.0048
2781.0,0.0048
2780.0,0.0048
2779.0,0.0048
2778.0,0.0048
2777.0,0.0048
2776.0,0.0048
2775.0,0.0047
2774.0,0.0048
2773.0,0.0048
2772.0,0.0048
2771.0,0.0047
2770.0,0.0047
2769.0,0.0047
2768.0,0.0047
2767.0,0.0047
2766.0,0.0048
2765.0,0.0047
2764.0,0.0047
2763.0,0.0047
2762.0,0.0047
2761.0,0.0048
2760.0,0.0049
2759.0,0.0049
2758.0,0.0048
2757.0,0.0047
2756.0,0.0046
2755.0,0.0046
2754.0,0.0046
2753.0,0.0046
2752.0,0.0046
2751.0,0.0046
2750.0,0.0046
2749.0,0.0047
2748.0,0.0048
2747.0,0.0049
2746.0,0.0048
2745.0,0.0048
2744.0,0.0047
2743.0,0.0047
2742.0,0.0048
2741.0,0.0048
2740.0,0.0048
2739.0,0.0048
2738.0,0.0048
2737.0,0.0048
2736.0,0.0048
2735.0,0.0048
2734.0,0.0048
2733.0,0.0049
2732.0,0.005
2731.0,0.0051
2730.0,0.0051
2729.0,0.0051
2728.0,0.005
2727.0,0.0049
2726.0,0.0048
2725.0,0.0048
2724.0,0.0048
2723.0,0.0048
2722.0,0.0048
2721.0,0.0048
2720.0,0.0048
2719.0,0.0048
2718.0,0.0048
2717.0,0.0047
2716.0,0.0047
2715.0,0.0047
2714.0,0.0047
2713.0,0.0047
2712.0,0.0047
2711.0,0.0048
2710.0,0.0048
2709.0,0.0048
2708.0,0.0049
2707.0,0.0049
2706.0,0.0049
2705.0,0.0048
2704.0,0.0048
2703.0,0.0047
2702.0,0.0047
2701.0,0.0048
2700.0,0.0049
2699.0,0.0049
2698.0,0.0049
2697.0,0.0048
2696.0,0.0048
2695.0,0.0048
2694.0,0.0048
2693.0,0.0048
2692.0,0.0048
2691.0,0.0048
2690.0,0.0048
2689.0,0.0048
2688.0,0.0048
2687.0,0.0049
2686.0,0.0049
2685.0,0.005
2684.0,0.0049
2683.0,0.0049
2682.0,0.0049
2681.0,0.0049
2680.0,0.005
2679.0,0.005
2678.0,0.005
2677.0,0.0049
2676.0,0.0049
2675.0,0.0049
2674.0,0.0049
2673.0,0.005
2672.0,0.005
2671.0,0.005
2670.0,0.0049
2669.0,0.0049
2668.0,0.0049
2667.0,0.0049
2666.0,0.0049
2665.0,0.0049
2664.0,0.0049
2663.0,0.005
2662.0,0.005
2661.0,0.005
2660.0,0.005
2659.0,0.005
2658.0,0.005
2657.0,0.005
2656.0,0.005
2655.0,0.005
2654.0,0.005
2653.0,0.0049
2652.0,0.0049
2651.0,0.0049
2650.0,0.0049
2649.0,0.0049
2648.0,0.005
2647.0,0.005
2646.0,0.005
2645.0,0.0049
2644.0,0.0049
2643.0,0.0048
2642.0,0.0048
2641.0,0.0047
2640.0,0.0048
2639.0,0.0048
2638.0,0.0049
2637.0,0.005
2636.0,0.0051
2635.0,0.0051
2634.0,0.005
2633.0,0.005
2632.0,0.005
2631.0,0.005
2630.0,0.005
2629.0,0.005
2628.0,0.0049
2627.0,0.0049
2626.0,0.0049
2625.0,0.0049
2624.0,0.0049
2623.0,0.0049
2622.0,0.0049
2621.0,0.0049
2620.0,0.0049
2619.0,0.0049
2618.0,0.0049
2617.0,0.005
2616.0,0.005
2615.0,0.005
2614.0,0.005
2613.0,0.0051
2612.0,0.0051
2611.0,0.0052
2610.0,0.0052
2609.0,0.0052
2608.0,0.0052
2607.0,0.0052
2606.0,0.0052
2605.0,0.0053
2604.0,0.0053
2603.0,0.0053
2602.0,0.0052
2601.0,0.0051
2600.0,0.0051
2599.0,0.0051
2598.0,0.0051
2597.0,0.0051
2596.0,0.0052
2595.0,0.0052
2594.0,0.0052
2593.0,0.0051
2592.0,0.0051
2591.0,0.0051
2590.0,0.0051
2589.0,0.0052
2588.0,0.0052
2587.0,0.0053
2586.0,0.0052
2585.0,0.0052
2584.0,0.0052
2583.0,0.0052
2582.0,0.0052
2581.0,0.0051
2580.0,0.0052
2579.0,0.0052
2578.0,0.0052
2577.0,0.0052
2576.0,0.0052
2575.0,0.0051
2574.0,0.0051
2573.0,0.0052
2572.0,0.0052
2571.0,0.0053
2570.0,0.0053
2569.0,0.0053
2568.0,0.0053
2567.0,0.0053
2566.0,0.0053
2565.0,0.0053
2564.0,0.0052
