nm,Intensity
528.616,1822.34
528.7,1823.24
528.785,1822.57
528.869,1822.91
528.953,1822.93
529.038,1822.75
529.122,1822.45
529.206,1822.65
529.29,1822.31
529.375,1823.0
529.459,1822.58
529.543,1822.63
529.627,1822.88
529.712,1822.97
529.796,1822.74
529.88,1822.35
529.964,1823.28
530.049,1823.32
530.133,1822.96
530.217,1823.1
530.301,1823.24
530.386,1823.17
530.47,1823.66
530.554,1823.48
530.638,1823.29
530.723,1823.74
530.807,1824.3
530.891,1824.39
530.975,1825.03
531.059,1825.44
531.144,1826.04
531.228,1827.2
531.312,1828.72
531.396,1831.21
531.481,1836.35
531.565,1849.32
531.649,1912.06
531.733,2196.77
531.817,3065.42
531.902,4166.22
531.986,4870.02
532.07,4480.09
532.154,3336.75
532.239,2259.95
532.323,1878.31
532.407,1831.08
532.491,1827.63
532.575,1826.2
532.66,1825.86
532.744,1825.6
532.828,1825.86
532.912,1826.35
532.996,1826.68
533.081,1827.37
533.165,1828.34
533.249,1832.17
533.333,1838.73
533.417,1863.26
533.501,1940.05
533.586,2120.71
533.67,2420.88
533.754,2780.22
533.838,3096.05
533.922,3308.13
534.007,3451.05
534.091,3538.93
534.175,3566.6
534.259,3560.42
534.343,3559.86
534.427,3574.66
534.512,3615.71
534.596,3658.4
534.68,3683.45
534.764,3697.49
534.848,3697.36
534.932,3704.05
535.017,3724.14
535.101,3754.1
535.185,3787.82
535.269,3800.98
535.353,3797.66
535.437,3812.89
535.522,3813.69
535.606,3809.61
535.69,3801.7
535.774,3783.0
535.858,3789.95
535.942,3783.92
536.026,3772.83
536.111,3794.9
536.195,3794.73
536.279,3806.17
536.363,3809.42
536.447,3818.63
536.531,3823.33
536.615,3818.49
536.7,3817.21
536.784,3822.87
536.868,3808.34
536.952,3835.66
537.036,3854.06
537.12,3864.94
537.204,3897.33
537.288,3919.84
537.373,3953.3
537.457,3944.27
537.541,3939.29
537.625,3930.85
537.709,3937.56
537.793,3968.05
537.877,3999.55
537.961,3977.45
538.045,3968.2
538.13,3962.25
538.214,3979.66
538.298,3992.06
538.382,4018.45
538.466,4004.64
538.55,4006.3
538.634,4011.44
538.718,4004.3
538.802,4015.26
538.886,4046.48
538.971,4052.29
539.055,4026.25
539.139,4031.57
539.223,4049.28
539.307,4064.81
539.391,4065.23
539.475,4061.97
539.559,4059.66
539.643,4076.43
539.727,4090.95
539.811,4078.68
539.895,4076.82
539.979,4075.21
540.064,4100.48
540.148,4087.63
540.232,4099.2
540.316,4106.17
540.4,4099.7
540.484,4104.85
540.568,4108.64
540.652,4123.74
540.736,4117.13
540.82,4120.63
540.904,4123.83
540.988,4125.13
541.072,4135.1
541.156,4143.81
541.24,4134.14
541.324,4117.04
541.408,4138.94
541.493,4151.99
541.577,4160.37
541.661,4161.44
541.745,4177.12
541.829,4183.19
541.913,4200.13
541.997,4215.79
542.081,4242.94
542.165,4251.49
542.249,4263.65
542.333,4269.79
542.417,4277.98
542.501,4297.83
542.585,4314.77
542.669,4320.79
542.753,4321.71
542.837,4347.04
542.921,4363.21
543.005,4357.15
543.089,4381.89
543.173,4403.58
543.257,4387.25
543.341,4380.15
543.425,4385.94
543.509,4411.02
543.593,4428.48
543.677,4463.98
543.761,4488.04
543.845,4482.75
543.929,4506.94
544.013,4560.04
544.097,4618.63
544.181,4673.65
544.265,4715.63
544.349,4795.04
544.433,4826.53
544.517,4871.63
544.601,4895.42
544.685,4900.9
544.769,4881.83
544.853,4856.85
544.937,4838.38
545.021,4813.08
545.105,4793.96
545.189,4779.58
545.273,4759.62
545.357,4742.42
545.441,4716.69
545.525,4674.75
545.609,4663.71
545.693,4675.12
545.777,4685.63
545.861,4695.1
545.945,4693.83
546.029,4648.94
546.113,4638.25
546.197,4655.34
546.281,4687.33
546.364,4651.02
546.448,4631.3
546.532,4614.15
546.616,4600.44
546.7,4617.92
546.784,4631.17
546.868,4615.83
546.952,4593.08
547.036,4598.52
547.12,4613.01
547.204,4621.98
547.288,4630.24
547.372,4610.11
547.456,4608.43
547.54,4630.15
547.624,4662.15
547.708,4654.13
547.791,4647.51
547.875,4663.42
547.959,4681.06
548.043,4671.96
548.127,4675.06
548.211,4722.42
548.295,4757.8
548.379,4771.37
548.463,4756.13
548.547,4744.14
548.631,4766.27
548.715,4782.16
548.798,4808.27
548.882,4813.82
548.966,4812.77
549.05,4833.1
549.134,4867.0
549.218,4880.94
549.302,4897.9
549.386,4924.17
549.47,4940.54
549.554,4968.94
549.637,5017.56
549.721,5062.62
549.805,5034.4
549.889,4996.13
549.973,5003.25
550.057,4987.79
550.141,4972.19
550.225,5015.45
550.309,5041.17
550.392,5052.31
550.476,5065.42
550.56,5084.29
550.644,5088.48
550.728,5087.15
550.812,5093.66
550.896,5065.69
550.98,5032.6
551.063,5020.78
551.147,5010.17
551.231,5062.66
551.315,5069.63
551.399,5102.49
551.483,5134.73
551.567,5121.06
551.65,5087.35
551.734,5028.29
551.818,4997.3
551.902,4958.08
551.986,4947.38
552.07,4926.72
552.153,4946.15
552.237,4978.0
552.321,4953.29
552.405,4928.08
552.489,4939.73
552.573,4964.0
552.657,4937.07
552.74,4891.65
552.824,4868.46
552.908,4929.85
552.992,4951.38
553.076,4940.19
553.159,4936.58
553.243,4922.71
553.327,4931.17
553.411,4953.98
553.495,4967.05
553.579,4968.24
553.662,4938.58
553.746,4940.33
553.83,4989.21
553.914,4976.12
553.998,4970.06
554.081,4999.35
554.165,5011.9
554.249,5026.51
554.333,5021.17
554.417,4994.48
554.5,4994.4
554.584,5022.38
554.668,5031.56
554.752,5040.4
554.836,5076.86
554.919,5058.86
555.003,5031.24
555.087,5013.27
555.171,5032.33
555.255,5057.4
555.338,5066.75
555.422,5038.63
555.506,5065.35
555.59,5110.79
555.673,5099.5
555.757,5076.35
555.841,5062.94
555.925,5070.4
556.009,5098.44
556.092,5085.85
556.176,5082.4
556.26,5096.12
556.344,5124.5
556.427,5103.64
556.511,5091.11
556.595,5102.71
556.679,5138.54
556.762,5104.85
556.846,5094.65
556.93,5090.49
557.014,5089.0
557.097,5112.19
557.181,5133.15
557.265,5171.02
557.349,5176.9
557.432,5171.54
557.516,5163.18
557.6,5167.96
557.684,5167.04
557.767,5178.68
557.851,5197.0
557.935,5186.15
558.018,5193.79
558.102,5207.88
558.186,5228.16
558.27,5238.6
558.353,5220.9
558.437,5241.06
558.521,5236.78
558.604,5205.39
558.688,5218.12
558.772,5240.54
558.856,5232.71
558.939,5237.85
559.023,5263.75
559.107,5267.17
559.19,5254.1
559.274,5244.8
559.358,5244.19
559.442,5269.93
559.525,5292.11
559.609,5290.26
559.693,5294.83
559.776,5263.11
559.86,5287.97
559.944,5308.35
560.027,5334.4
560.111,5324.65
560.195,5325.82
560.278,5319.81
560.362,5313.45
560.446,5353.9
560.529,5381.4
560.613,5420.71
560.697,5426.47
560.781,5401.58
560.864,5387.69
560.948,5407.08
561.032,5461.54
561.115,5482.98
561.199,5472.74
561.283,5479.24
561.366,5531.28
561.45,5597.26
561.533,5610.33
561.617,5698.69
561.701,5806.33
561.784,6000.88
561.868,6253.18
561.952,6561.96
562.035,6853.83
562.119,7216.89
562.203,7606.65
562.286,7868.15
562.37,7816.94
562.454,7541.73
562.537,7053.85
562.621,6500.06
562.704,6087.77
562.788,5872.49
562.872,5742.16
562.955,5649.13
563.039,5605.96
563.123,5601.73
563.206,5622.28
563.29,5574.48
563.373,5574.23
563.457,5578.88
563.541,5560.24
563.624,5555.25
563.708,5580.29
563.792,5636.44
563.875,5671.39
563.959,5674.17
564.042,5716.71
564.126,5736.96
564.21,5736.54
564.293,5758.48
564.377,5702.55
564.46,5706.9
564.544,5699.29
564.628,5689.04
564.711,5733.77
564.795,5726.95
564.878,5761.46
564.962,5749.33
565.045,5750.32
565.129,5739.54
565.213,5750.77
565.296,5768.33
565.38,5798.51
565.463,5816.9
565.547,5829.07
565.631,5827.58
565.714,5875.1
565.798,5891.1
565.881,5934.48
565.965,5991.06
566.048,5995.56
566.132,6024.16
566.215,5997.12
566.299,5986.35
566.383,5927.12
566.466,5935.04
566.55,5977.19
566.633,5983.54
566.717,5998.37
566.8,6007.92
566.884,5984.56
566.967,5983.4
567.051,6030.13
567.135,6039.73
567.218,5984.77
567.302,5979.58
567.385,6000.38
567.469,6013.55
567.552,5988.79
567.636,5941.71
567.719,5896.7
567.803,5879.21
567.886,5883.1
567.97,5931.81
568.053,5942.69
568.137,5969.96
568.22,5948.87
568.304,5949.63
568.387,5928.32
568.471,5920.31
568.554,5941.05
568.638,5972.7
568.721,5982.37
568.805,5998.23
568.888,5990.14
568.972,5997.17
569.055,5979.04
569.139,5977.74
569.222,5986.08
569.306,6015.08
569.389,6009.21
569.473,6030.25
569.556,6005.87
569.64,6010.67
569.723,6009.4
569.807,6017.07
569.89,6008.33
569.974,5970.81
570.057,5987.88
570.141,6036.23
570.224,6041.08
570.308,6075.96
570.391,6091.54
570.475,6075.75
570.558,6082.73
570.642,6092.71
570.725,6112.92
570.808,6098.02
570.892,6082.48
570.975,6084.62
571.059,6098.23
571.142,6149.98
571.226,6188.73
571.309,6252.2
571.393,6341.64
571.476,6384.62
571.56,6348.42
571.643,6263.08
571.726,6270.37
571.81,6274.56
571.893,6219.64
571.977,6225.28
572.06,6232.1
572.144,6261.52
572.227,6292.75
572.31,6305.71
572.394,6317.46
572.477,6332.46
572.561,6290.02
572.644,6249.02
572.728,6250.12
572.811,6267.34
572.894,6261.25
572.978,6260.92
573.061,6315.36
573.145,6327.94
573.228,6306.23
573.311,6285.74
573.395,6290.39
573.478,6291.06
573.562,6300.98
573.645,6278.1
573.728,6257.31
573.812,6274.9
573.895,6295.63
573.979,6307.25
574.062,6297.44
574.145,6292.8
574.229,6295.85
574.312,6326.85
574.396,6290.98
574.479,6259.81
574.562,6253.04
574.646,6325.5
574.729,6335.82
574.813,6358.02
574.896,6353.96
574.979,6357.08
575.063,6342.07
575.146,6344.27
575.229,6335.4
575.313,6374.73
575.396,6435.64
575.479,6501.88
575.563,6517.5
575.646,6514.88
575.729,6492.52
575.813,6475.79
575.896,6503.73
575.98,6510.4
576.063,6538.77
576.146,6639.63
576.23,6658.87
576.313,6631.83
576.396,6631.98
576.48,6621.55
576.563,6615.92
576.646,6633.05
576.73,6603.29
576.813,6600.71
576.896,6618.02
576.98,6559.96
577.063,6498.1
577.146,6519.48
577.23,6551.19
577.313,6502.58
577.396,6508.16
577.48,6492.79
577.563,6474.15
577.646,6487.73
577.729,6475.6
577.813,6438.73
577.896,6454.58
577.979,6441.48
578.063,6472.33
578.146,6489.72
578.229,6481.04
578.313,6447.25
578.396,6444.75
578.479,6446.75
578.562,6454.62
578.646,6467.21
578.729,6480.94
578.812,6463.77
578.896,6462.92
578.979,6499.85
579.062,6504.12
579.145,6474.55
579.229,6489.58
579.312,6519.65
579.395,6543.79
579.479,6540.52
579.562,6499.41
579.645,6494.0
579.728,6518.63
579.812,6553.37
579.895,6546.85
579.978,6538.27
580.061,6554.08
580.145,6559.06
580.228,6567.17
580.311,6596.3
580.394,6631.4
580.478,6612.81
580.561,6562.21
580.644,6575.87
580.727,6611.74
580.811,6635.02
580.894,6646.67
580.977,6636.9
581.06,6568.37
581.144,6584.83
581.227,6607.59
581.31,6601.49
581.393,6596.05
581.476,6572.32
581.56,6584.37
581.643,6631.31
581.726,6649.07
581.809,6620.51
581.893,6582.21
581.976,6644.06
582.059,6669.98
582.142,6605.42
582.225,6540.54
582.309,6590.32
582.392,6611.08
582.475,6614.44
582.558,6636.23
582.641,6656.52
582.725,6564.65
582.808,6540.69
582.891,6557.08
582.974,6582.19
583.057,6593.23
583.141,6589.1
583.224,6580.33
583.307,6575.77
583.39,6610.17
583.473,6643.23
583.556,6603.44
583.64,6588.63
583.723,6586.89
583.806,6625.83
583.889,6628.2
583.972,6616.25
584.055,6584.08
584.139,6603.58
584.222,6583.12
584.305,6606.83
584.388,6645.88
584.471,6563.03
584.554,6531.39
584.638,6563.97
584.721,6589.79
584.804,6570.3
584.887,6560.02
584.97,6608.13
585.053,6597.84
585.136,6594.75
585.22,6589.54
585.303,6546.2
585.386,6553.23
585.469,6554.94
585.552,6499.67
585.635,6533.98
585.718,6564.42
585.802,6579.44
585.885,6587.77
585.968,6594.25
586.051,6579.29
586.134,6551.35
586.217,6512.04
586.3,6528.71
586.383,6517.85
586.466,6553.87
586.55,6605.31
586.633,6618.0
586.716,6606.58
586.799,6618.2
586.882,6582.71
586.965,6599.24
587.048,6618.77
587.131,6633.88
587.214,6646.67
587.297,6638.02
587.381,6601.77
587.464,6579.44
587.547,6602.39
587.63,6661.06
587.713,6683.75
587.796,6680.08
587.879,6675.08
587.962,6654.4
588.045,6652.89
588.128,6670.45
588.211,6703.31
588.294,6705.92
588.377,6622.2
588.461,6595.93
588.544,6599.38
588.627,6585.96
588.71,6664.21
588.793,6688.92
588.876,6693.42
588.959,6675.46
589.042,6612.48
589.125,6615.36
589.208,6591.33
589.291,6555.86
589.374,6571.38
589.457,6627.77
589.54,6608.35
589.623,6595.08
589.706,6585.52
589.789,6617.66
589.872,6659.5
589.955,6671.25
590.038,6608.55
590.121,6574.28
590.204,6623.75
590.287,6646.33
590.37,6660.36
590.453,6608.63
590.536,6601.65
590.619,6604.33
590.703,6596.25
590.786,6625.88
590.869,6651.3
590.952,6638.25
591.035,6614.33
591.118,6662.83
591.201,6665.23
591.284,6661.56
591.367,6671.4
591.45,6609.06
591.533,6648.23
591.615,6673.5
591.698,6654.29
591.781,6667.17
591.864,6684.88
591.947,6692.19
592.03,6708.85
592.113,6736.77
592.196,6762.77
592.279,6732.22
592.362,6682.24
592.445,6685.87
592.528,6668.64
592.611,6656.63
592.694,6647.73
592.777,6696.52
592.86,6727.01
592.943,6651.42
593.026,6643.99
593.109,6655.24
593.192,6640.0
593.275,6677.21
593.358,6677.52
593.441,6648.37
593.524,6663.2
593.607,6647.4
593.69,6659.99
593.773,6688.4
593.855,6692.68
593.938,6682.5
594.021,6666.73
594.104,6608.52
594.187,6615.56
594.27,6661.31
594.353,6692.0
594.436,6708.9
594.519,6654.83
594.602,6679.92
594.685,6677.26
594.768,6700.88
594.851,6698.81
594.933,6707.77
595.016,6726.93
595.099,6705.7
595.182,6664.14
595.265,6630.06
595.348,6661.08
595.431,6733.44
595.514,6738.54
595.597,6777.77
595.68,6790.38
595.762,6790.5
595.845,6777.35
595.928,6783.94
596.011,6789.42
596.094,6766.37
596.177,6741.77
596.26,6723.44
596.343,6697.21
596.425,6707.08
596.508,6782.4
596.591,6804.62
596.674,6803.44
596.757,6775.4
596.84,6776.73
596.923,6763.79
597.006,6711.1
597.088,6717.93
597.171,6746.15
597.254,6765.44
597.337,6801.51
597.42,6803.69
597.503,6800.77
597.585,6760.85
597.668,6758.63
597.751,6778.67
597.834,6795.62
597.917,6767.78
598.0,6713.67
598.082,6783.14
598.165,6784.97
598.248,6775.19
598.331,6790.81
598.414,6798.4
598.497,6781.86
598.579,6769.27
598.662,6808.33
598.745,6788.54
598.828,6723.33
598.911,6756.85
598.994,6826.04
599.076,6816.17
599.159,6793.21
599.242,6792.98
599.325,6803.15
599.408,6754.71
599.49,6774.0
599.573,6800.54
599.656,6853.91
599.739,6833.76
599.821,6837.69
599.904,6810.39
599.987,6805.56
600.07,6845.68
600.153,6860.46
600.235,6824.42
600.318,6825.58
600.401,6815.26
600.484,6832.23
600.567,6826.19
600.649,6796.79
600.732,6776.28
600.815,6856.85
600.898,6804.79
600.98,6817.13
601.063,6854.13
601.146,6853.04
601.229,6792.65
601.311,6761.29
601.394,6821.24
601.477,6829.62
601.56,6886.21
601.642,6918.1
601.725,6869.96
601.808,6807.12
601.891,6780.6
601.973,6817.29
602.056,6832.29
602.139,6813.19
602.221,6822.02
602.304,6840.63
602.387,6817.46
602.47,6786.33
602.552,6816.07
602.635,6798.83
602.718,6783.37
602.801,6815.39
602.883,6815.32
602.966,6816.06
603.049,6833.71
603.131,6796.48
603.214,6799.26
603.297,6860.04
603.379,6848.4
603.462,6834.28
603.545,6803.77
603.628,6802.04
603.71,6781.38
603.793,6754.81
603.876,6768.27
603.958,6821.36
604.041,6774.07
604.124,6771.52
604.206,6777.15
604.289,6833.16
604.372,6829.53
604.454,6804.19
604.537,6824.71
604.62,6815.35
604.702,6795.93
604.785,6749.38
604.868,6747.5
604.95,6772.07
605.033,6788.71
605.116,6718.71
605.198,6719.3
605.281,6751.15
605.364,6770.5
605.446,6749.94
605.529,6708.31
605.612,6688.9
605.694,6764.06
605.777,6776.63
605.86,6702.77
605.942,6716.64
606.025,6770.74
606.107,6824.23
606.19,6843.52
606.273,6809.39
606.355,6753.54
606.438,6736.33
606.521,6733.81
606.603,6732.6
606.686,6745.43
606.768,6730.15
606.851,6743.22
606.934,6776.79
607.016,6811.83
607.099,6800.27
607.181,6753.66
607.264,6765.01
607.347,6781.62
607.429,6764.52
607.512,6726.73
607.594,6705.62
607.677,6741.27
607.76,6720.73
607.842,6706.0
607.925,6746.48
608.007,6779.38
608.09,6758.52
608.173,6718.33
608.255,6726.29
608.338,6788.65
608.42,6777.31
608.503,6765.55
608.585,6756.5
608.668,6695.56
608.751,6666.74
608.833,6677.51
608.916,6702.05
608.998,6767.08
609.081,6749.9
609.163,6770.79
609.246,6721.1
609.328,6689.77
609.411,6696.1
609.494,6736.74
609.576,6743.27
609.659,6730.13
609.741,6673.62
609.824,6663.08
609.906,6731.08
609.989,6762.59
610.071,6728.19
610.154,6723.79
610.236,6761.04
610.319,6727.29
610.401,6693.17
610.484,6735.71
610.566,6780.43
610.649,6751.57
610.731,6711.96
610.814,6748.58
610.896,6728.44
610.979,6719.46
611.061,6713.52
611.144,6735.21
611.226,6664.1
611.309,6732.26
611.391,6743.87
611.474,6695.77
611.556,6711.88
611.639,6734.34
611.721,6685.28
611.804,6672.27
611.886,6682.42
611.969,6682.76
612.051,6653.13
612.134,6654.06
612.216,6714.04
612.299,6679.59
612.381,6708.36
612.464,6726.77
612.546,6678.52
612.629,6627.49
612.711,6644.79
612.794,6646.77
612.876,6616.94
612.958,6662.51
613.041,6717.02
613.123,6741.15
613.206,6683.06
613.288,6639.03
613.371,6682.58
613.453,6714.33
613.536,6648.13
613.618,6649.35
613.7,6656.94
613.783,6661.9
613.865,6688.19
613.948,6730.63
614.03,6660.29
614.113,6593.1
614.195,6591.83
614.277,6631.9
614.36,6633.06
614.442,6659.97
614.525,6685.08
614.607,6656.04
614.689,6620.79
614.772,6680.51
614.854,6702.86
614.937,6739.73
615.019,6658.29
615.102,6640.13
615.184,6643.6
615.266,6641.78
615.349,6627.5
615.431,6669.63
615.513,6682.12
615.596,6699.92
615.678,6621.29
615.761,6615.44
615.843,6635.48
615.925,6619.99
616.008,6636.65
616.09,6685.94
616.172,6701.73
616.255,6678.25
616.337,6633.35
616.42,6618.4
616.502,6559.25
616.584,6591.06
616.667,6568.69
616.749,6590.13
616.831,6614.92
616.914,6646.6
616.996,6665.29
617.078,6641.59
617.161,6583.75
617.243,6629.25
617.325,6657.9
617.408,6664.77
617.49,6626.69
617.572,6614.84
617.655,6623.65
617.737,6622.17
617.819,6667.6
617.902,6666.04
617.984,6667.56
618.066,6645.33
618.149,6657.31
618.231,6607.54
618.313,6599.26
618.396,6658.85
618.478,6654.1
618.56,6647.83
618.643,6636.5
618.725,6578.38
618.807,6602.46
618.889,6607.29
618.972,6630.44
619.054,6644.33
619.136,6636.97
619.219,6659.55
619.301,6581.39
619.383,6593.33
619.465,6667.73
619.548,6665.1
619.63,6664.61
619.712,6648.27
619.795,6673.48
619.877,6684.05
619.959,6634.31
620.041,6567.81
620.124,6598.27
620.206,6675.79
620.288,6639.29
620.37,6618.77
620.453,6634.24
620.535,6612.79
620.617,6568.79
620.699,6569.29
620.782,6597.46
620.864,6601.68
620.946,6602.1
621.028,6612.31
621.111,6595.6
621.193,6565.39
621.275,6599.75
621.357,6594.21
621.44,6597.87
621.522,6625.21
621.604,6636.04
621.686,6641.27
621.768,6613.22
621.851,6594.13
621.933,6598.46
622.015,6569.79
622.097,6532.06
622.179,6556.37
622.262,6606.08
622.344,6674.7
622.426,6667.26
622.508,6591.67
622.59,6582.47
622.673,6583.56
622.755,6572.96
622.837,6593.25
622.919,6598.04
623.001,6625.35
623.084,6555.08
623.166,6477.62
623.248,6505.57
623.33,6520.06
623.412,6547.23
623.495,6600.99
623.577,6596.08
623.659,6540.87
623.741,6555.31
623.823,6531.77
623.905,6515.06
623.987,6518.4
624.07,6519.44
624.152,6522.71
624.234,6542.77
624.316,6546.68
624.398,6581.4
624.48,6557.54
624.563,6518.96
624.645,6524.4
624.727,6482.84
624.809,6449.34
624.891,6465.21
624.973,6522.38
625.055,6559.09
625.137,6555.13
625.22,6500.38
625.302,6434.13
625.384,6424.31
625.466,6493.25
625.548,6465.6
625.63,6465.23
625.712,6451.77
625.794,6408.63
625.876,6469.34
625.959,6472.52
626.041,6488.88
626.123,6519.97
626.205,6520.83
626.287,6477.97
626.369,6525.5
626.451,6560.69
626.533,6589.54
626.615,6639.48
626.697,6720.27
626.78,6780.92
626.862,6885.56
626.944,6982.52
627.026,7044.94
627.108,7057.4
627.19,7128.99
627.272,7150.0
627.354,7066.33
627.436,7033.5
627.518,6998.71
627.6,6898.33
627.682,6814.48
627.764,6827.13
627.846,6868.6
627.928,6929.5
628.01,6959.33
628.092,6973.68
628.175,7006.94
628.257,7151.52
628.339,7247.71
628.421,7298.65
628.503,7408.14
628.585,7421.06
628.667,7239.17
628.749,7050.4
628.831,6953.83
628.913,6850.29
628.995,6825.62
629.077,6880.08
629.159,6930.98
629.241,6909.13
629.323,6865.22
629.405,6840.55
629.487,6779.06
629.569,6757.42
629.651,6708.38
629.733,6710.44
629.815,6695.87
629.897,6677.98
629.979,6641.64
630.061,6609.62
630.143,6566.84
630.225,6562.6
630.307,6597.38
630.389,6583.98
630.471,6575.94
630.553,6592.11
630.635,6645.23
630.717,6600.32
630.799,6485.81
630.881,6466.58
630.963,6460.77
631.045,6474.37
631.127,6465.04
631.208,6466.52
631.29,6420.65
631.372,6317.31
631.454,6325.21
631.536,6345.78
631.618,6371.64
631.7,6352.59
631.782,6302.01
631.864,6258.21
631.946,6254.0
632.028,6290.69
632.11,6288.69
632.192,6288.12
632.274,6355.78
632.356,6370.4
632.438,6380.38
632.519,6337.25
632.601,6328.19
632.683,6292.27
632.765,6221.96
632.847,6237.79
632.929,6259.06
633.011,6290.98
633.093,6221.04
633.175,6188.56
633.257,6269.81
633.339,6361.08
633.42,6295.38
633.502,6272.41
633.584,6287.92
633.666,6267.16
633.748,6214.44
633.83,6228.97
