nm,Intensity
791.588,6950.8
791.862,6912.14
792.136,6955.28
792.411,6955.32
792.685,6951.48
792.959,6966.78
793.233,6957.32
793.507,6972.72
793.781,6972.48
794.056,7002.6
794.33,6957.02
794.604,6902.96
794.878,6968.18
795.152,6956.56
795.426,6944.48
795.701,6950.84
795.975,6935.16
796.249,6911.12
796.523,6909.54
796.797,6901.08
797.071,6909.84
797.345,6918.18
797.619,6976.16
797.894,6971.72
798.168,6952.68
798.442,6904.9
798.716,6894.66
798.99,6888.34
799.264,6934.18
799.538,6921.2
799.812,6911.32
800.086,6866.54
800.36,6847.42
800.634,6863.0
800.908,6864.3
801.182,6899.92
801.456,6886.02
801.73,6808.42
802.004,6856.5
802.278,6872.98
802.552,6822.28
802.826,6833.06
803.1,6840.12
803.374,6806.44
803.648,6783.82
803.922,6802.48
804.196,6828.08
804.47,6792.68
804.744,6765.18
805.018,6814.7
805.292,6827.44
805.566,6822.54
805.84,6814.22
806.114,6811.66
806.388,6760.24
806.662,6733.96
806.936,6766.4
807.209,6770.42
807.483,6779.94
807.757,6721.46
808.031,6745.42
808.305,6752.6
808.579,6727.94
808.853,6724.16
809.127,6741.9
809.4,6710.62
809.674,6693.3
809.948,6686.04
810.222,6650.28
810.496,6629.06
810.77,6638.86
811.043,6667.06
811.317,6677.46
811.591,6608.7
811.865,6587.78
812.139,6571.56
812.412,6596.06
812.686,6641.86
812.96,6582.36
813.234,6549.34
813.507,6541.22
813.781,6544.12
814.055,6539.8
814.329,6496.98
814.602,6511.94
814.876,6530.76
815.15,6476.44
815.424,6425.22
815.697,6451.52
815.971,6468.66
816.245,6447.78
816.518,6433.82
816.792,6422.6
817.066,6442.38
817.34,6417.92
817.613,6413.9
817.887,6380.1
818.161,6382.08
818.434,6376.44
818.708,6418.86
818.981,6374.22
819.255,6367.64
819.529,6386.94
819.802,6347.48
820.076,6386.8
820.35,6360.9
820.623,6394.08
820.897,6372.1
821.17,6340.32
821.444,6366.34
821.718,6336.58
821.991,6309.54
822.265,6280.02
822.538,6251.88
822.812,6208.7
823.085,6217.16
823.359,6238.98
823.632,6245.02
823.906,6274.78
824.18,6285.3
824.453,6272.38
824.727,6253.34
825.0,6283.32
825.274,6250.12
825.547,6206.9
825.821,6177.32
826.094,6185.48
826.367,6182.62
826.641,6185.72
826.914,6166.12
827.188,6162.68
827.461,6168.1
827.735,6163.78
828.008,6108.26
828.282,6129.6
828.555,6108.42
828.828,6114.74
829.102,6113.3
829.375,6074.1
829.649,6077.88
829.922,6063.32
830.195,6056.58
830.469,6064.84
830.742,6045.1
831.016,6076.58
831.289,6041.02
831.562,6026.96
831.836,6015.36
832.109,6018.92
832.382,6000.76
832.656,6038.38
832.929,6027.44
833.202,5999.76
833.476,5999.66
833.749,5976.92
834.022,5941.04
834.295,5939.22
834.569,5962.4
834.842,5976.34
835.115,5994.72
835.388,5913.6
835.662,5930.32
835.935,5945.54
836.208,5967.6
836.481,5954.1
836.755,5906.94
837.028,5895.3
837.301,5935.88
837.574,5909.44
837.848,5932.54
838.121,5908.2
838.394,5885.18
838.667,5853.18
838.94,5873.48
839.213,5887.58
839.487,5857.08
839.76,5839.56
840.033,5843.1
840.306,5824.38
840.579,5837.82
840.852,5829.1
841.125,5814.5
841.399,5835.56
841.672,5813.74
841.945,5823.66
842.218,5796.42
842.491,5805.9
842.764,5793.98
843.037,5787.12
843.31,5796.48
843.583,5813.2
843.856,5795.46
844.129,5747.96
844.402,5730.02
844.675,5780.72
844.948,5740.72
845.221,5719.5
845.495,5720.12
845.768,5742.54
846.041,5725.16
846.314,5697.56
846.586,5716.38
846.859,5705.8
847.132,5707.7
847.405,5699.02
847.678,5680.56
847.951,5663.92
848.224,5683.62
848.497,5668.28
848.77,5674.84
849.043,5634.84
849.316,5636.72
849.589,5635.98
849.862,5638.72
850.135,5584.48
850.408,5593.96
850.681,5571.26
850.953,5587.32
851.226,5610.8
851.499,5598.02
851.772,5601.12
852.045,5600.96
852.318,5591.66
852.591,5582.48
852.863,5587.62
853.136,5555.2
853.409,5555.28
853.682,5534.34
853.955,5504.24
854.227,5517.1
854.5,5517.12
854.773,5493.98
855.046,5472.0
855.318,5495.42
855.591,5489.9
855.864,5476.18
856.137,5510.12
856.409,5468.7
856.682,5443.54
856.955,5466.44
857.228,5466.96
857.5,5475.74
857.773,5461.8
858.046,5480.42
858.318,5483.46
858.591,5477.74
858.864,5468.28
859.137,5451.08
859.409,5429.66
859.682,5449.0
859.954,5419.5
860.227,5417.4
860.5,5397.8
860.772,5384.64
861.045,5392.66
861.318,5396.24
861.59,5355.98
861.863,5348.18
862.135,5366.82
862.408,5372.72
862.681,5364.08
862.953,5344.42
863.226,5330.28
863.498,5345.54
863.771,5346.22
864.043,5315.52
864.316,5334.86
864.588,5332.7
864.861,5313.82
865.133,5284.38
865.406,5298.4
865.678,5297.32
865.951,5283.18
866.223,5294.04
866.496,5251.28
866.768,5236.98
867.041,5239.6
867.313,5234.96
867.586,5244.46
867.858,5263.22
868.131,5260.06
868.403,5242.92
868.675,5212.18
868.948,5209.48
869.22,5206.72
869.493,5185.54
869.765,5217.82
870.037,5206.46
870.31,5194.64
870.582,5206.66
870.854,5192.32
871.127,5189.58
871.399,5183.9
871.672,5177.36
871.944,5176.02
872.216,5166.76
872.488,5161.02
872.761,5170.24
873.033,5134.2
873.305,5131.48
873.578,5113.58
873.85,5113.0
874.122,5138.96
874.394,5134.32
874.667,5122.16
874.939,5110.24
875.211,5082.82
875.483,5079.6
875.756,5111.7
876.028,5107.06
876.3,5106.86
876.572,5074.84
876.845,5085.42
877.117,5080.54
877.389,5065.0
877.661,5043.7
877.933,5052.42
878.205,5035.82
878.478,5007.02
878.75,5022.82
879.022,5021.6
879.294,5006.62
879.566,5010.14
879.838,5006.22
880.11,5003.5
880.382,5008.2
880.654,4996.78
880.927,4977.72
881.199,4973.14
881.471,4969.72
881.743,4971.8
882.015,4975.36
882.287,4993.56
882.559,4983.4
882.831,4972.02
883.103,4960.38
883.375,4938.7
883.647,4927.98
883.919,4928.68
884.191,4916.68
884.463,4937.04
884.735,4932.6
885.007,4931.36
885.279,4931.96
885.551,4909.78
885.823,4900.8
886.095,4871.24
886.367,4866.96
886.639,4852.26
886.91,4868.64
887.182,4886.44
887.454,4859.82
887.726,4840.32
887.998,4851.72
888.27,4853.68
888.542,4865.24
888.814,4854.14
889.085,4832.16
889.357,4813.52
889.629,4823.6
889.901,4803.96
890.173,4817.82
890.445,4818.5
890.716,4812.42
890.988,4781.98
891.26,4765.76
891.532,4782.9
891.804,4787.28
892.075,4770.42
892.347,4753.12
892.619,4746.94
892.891,4733.0
893.162,4719.4
893.434,4715.78
893.706,4704.96
893.978,4709.14
894.249,4705.52
894.521,4702.26
894.793,4671.74
895.064,4677.12
895.336,4675.66
895.608,4654.78
895.879,4653.22
896.151,4650.98
896.423,4640.52
896.694,4649.52
896.966,4645.42
897.237,4632.34
897.509,4621.32
897.781,4605.76
898.052,4593.62
898.324,4590.94
898.595,4591.72
898.867,4598.0
899.139,4574.76
899.41,4564.78
899.682,4567.56
899.953,4574.9
900.225,4575.22
900.496,4571.44
900.768,4552.72
901.039,4552.34
901.311,4554.34
901.582,4544.32
901.854,4546.24
902.125,4547.04
902.397,4540.32
902.668,4547.2
902.94,4560.72
903.211,4560.72
903.482,4557.6
903.754,4560.82
904.025,4554.64
904.297,4528.84
904.568,4524.52
904.839,4519.78
905.111,4505.92
905.382,4504.24
905.654,4490.38
905.925,4488.18
906.196,4492.26
906.468,4494.62
906.739,4477.52
907.01,4470.82
907.282,4470.24
907.553,4460.46
907.824,4448.5
908.096,4432.14
908.367,4431.72
908.638,4438.12
908.909,4425.16
909.181,4425.44
909.452,4426.96
909.723,4431.96
909.994,4428.7
910.266,4419.8
910.537,4416.84
910.808,4413.58
911.079,4411.34
911.35,4410.16
911.622,4417.52
911.893,4411.68
912.164,4396.14
912.435,4379.2
912.706,4374.92
912.977,4366.84
913.249,4366.96
913.52,4374.56
913.791,4363.28
914.062,4365.2
914.333,4361.56
914.604,4354.24
914.875,4353.8
915.146,4347.54
915.417,4341.08
915.688,4336.0
915.959,4336.02
916.231,4314.28
916.502,4326.96
916.773,4322.12
917.044,4312.9
917.315,4316.56
917.586,4320.74
917.857,4321.94
918.128,4318.48
918.399,4324.08
918.67,4330.18
918.941,4319.46
919.211,4295.18
919.482,4295.56
919.753,4300.7
920.024,4302.42
920.295,4291.86
920.566,4284.86
920.837,4281.7
921.108,4285.9
921.379,4280.0
921.65,4286.9
921.921,4288.6
922.191,4274.48
922.462,4271.54
922.733,4268.16
923.004,4258.52
923.275,4257.3
923.546,4256.08
923.816,4242.54
924.087,4236.64
924.358,4233.14
924.629,4227.46
924.9,4222.36
925.17,4227.44
925.441,4225.46
925.712,4217.0
925.983,4213.64
926.253,4218.18
926.524,4217.36
926.795,4208.52
927.065,4189.06
927.336,4191.02
927.607,4194.18
927.877,4180.68
928.148,4168.18
928.419,4166.14
928.689,4165.7
928.96,4156.86
929.231,4153.54
929.501,4155.76
929.772,4151.88
930.043,4138.8
930.313,4122.16
930.584,4129.62
930.854,4129.88
931.125,4120.7
931.396,4114.14
931.666,4105.98
931.937,4114.74
932.207,4109.64
932.478,4105.42
932.748,4108.92
933.019,4106.74
933.289,4093.0
933.56,4089.78
933.83,4084.22
934.101,4086.76
934.371,4082.26
934.642,4083.7
934.912,4080.08
935.183,4073.84
935.453,4070.52
935.723,4072.94
935.994,4072.64
936.264,4072.48
936.535,4061.48
936.805,4051.38
937.075,4050.32
937.346,4049.68
937.616,4051.06
937.886,4054.8
938.157,4053.08
938.427,4051.5
938.697,4043.36
938.968,4045.44
939.238,4042.24
939.508,4039.88
939.779,4043.2
940.049,4041.18
940.319,4036.22
940.59,4037.78
940.86,4031.6
941.13,4031.3
941.4,4028.68
941.671,4018.52
941.941,4023.94
942.211,4019.06
942.481,4020.84
942.751,4011.56
943.022,4015.68
943.292,4016.68
943.562,4006.96
943.832,4004.54
944.102,4002.22
944.372,3999.24
944.642,3991.26
944.913,3991.78
945.183,3988.16
945.453,3998.42
945.723,3997.36
945.993,3988.02
946.263,3986.3
946.533,3985.92
946.803,3985.26
947.073,3978.94
947.343,3982.2
947.613,3981.64
947.883,3974.6
948.153,3964.72
948.423,3968.52
948.693,3971.6
948.963,3970.84
949.233,3969.18
949.503,3961.78
949.773,3961.0
950.043,3965.66
950.313,3965.36
950.583,3965.0
950.853,3953.22
951.123,3951.18
951.393,3948.64
951.663,3949.72
951.933,3948.74
952.202,3955.94
952.472,3952.58
952.742,3945.44
953.012,3944.24
953.282,3931.68
953.552,3933.32
953.822,3936.54
954.091,3936.22
954.361,3934.84
954.631,3927.98
954.901,3926.04
955.17,3927.2
955.44,3926.22
955.71,3927.78
955.98,3927.52
956.25,3932.04
956.519,3925.88
956.789,3925.8
957.059,3922.62
957.328,3919.92
957.598,3917.62
957.868,3914.52
958.137,3910.02
958.407,3907.8
958.677,3909.92
958.946,3915.14
959.216,3908.36
959.486,3910.66
959.755,3907.64
960.025,3904.84
960.294,3908.42
960.564,3906.0
960.834,3899.68
961.103,3893.78
961.373,3897.14
961.642,3898.56
961.912,3894.98
962.181,3893.1
962.451,3894.62
962.72,3891.16
962.99,3891.0
963.259,3891.98
963.529,3892.54
963.798,3895.16
964.068,3891.68
964.337,3889.7
964.607,3888.86
964.876,3885.24
965.146,3878.84
965.415,3880.46
965.684,3881.24
965.954,3883.14
966.223,3882.92
966.493,3881.26
966.762,3877.74
967.031,3884.54
967.301,3885.5
967.57,3884.22
967.839,3875.94
968.109,3876.24
968.378,3875.78
968.647,3876.22
968.917,3875.68
969.186,3875.28
969.455,3873.56
969.724,3872.32
969.994,3874.04
970.263,3872.6
970.532,3871.6
970.801,3873.38
971.071,3869.3
971.34,3865.98
971.609,3860.92
971.878,3861.96
972.147,3865.14
972.417,3866.72
972.686,3859.48
972.955,3859.68
973.224,3856.64
973.493,3858.08
973.762,3852.28
974.031,3854.32
974.3,3853.2
974.57,3851.6
974.839,3849.06
975.108,3845.42
975.377,3846.8
975.646,3846.8
975.915,3847.28
976.184,3845.46
976.453,3848.0
976.722,3846.58
976.991,3842.86
977.26,3843.02
977.529,3841.24
977.798,3842.72
978.067,3841.58
978.336,3842.24
978.605,3839.5
978.874,3837.8
979.143,3838.62
979.412,3836.98
979.68,3835.0
979.949,3835.04
980.218,3832.22
980.487,3837.0
980.756,3837.06
981.025,3837.22
981.294,3834.5
981.563,3833.98
981.831,3831.98
982.1,3834.64
982.369,3832.82
982.638,3831.62
982.907,3832.62
983.175,3829.8
983.444,3827.78
983.713,3827.58
983.982,3828.2
984.25,3829.52
984.519,3831.78
984.788,3829.58
985.057,3823.84
985.325,3827.98
985.594,3827.22
985.863,3826.7
986.131,3822.9
986.4,3822.36
986.669,3821.92
986.937,3823.3
987.206,3824.94
987.475,3823.24
987.743,3822.48
988.012,3821.38
988.28,3819.04
988.549,3816.22
988.817,3818.94
989.086,3817.84
989.355,3816.98
989.623,3817.08
989.892,3815.64
990.16,3814.34
990.429,3815.8
990.697,3815.54
990.966,3813.78
991.234,3815.06
991.503,3813.44
991.771,3810.48
992.04,3809.2
992.308,3811.4
992.576,3809.82
992.845,3810.24
993.113,3810.2
993.382,3809.62
993.65,3807.22
993.918,3808.5
994.187,3806.82
994.455,3803.3
994.723,3804.16
994.992,3805.8
995.26,3804.08
995.528,3803.68
995.797,3803.14
996.065,3803.2
996.333,3802.12
996.602,3800.72
996.87,3802.6
997.138,3799.62
997.406,3797.7
997.675,3797.02
997.943,3797.34
998.211,3797.12
998.479,3794.84
998.747,3795.98
999.016,3797.28
999.284,3796.98
999.552,3794.48
999.82,3794.8
1000.09,3791.72
1000.36,3791.9
1000.62,3792.96
1000.89,3791.4
1001.16,3790.6
1001.43,3790.26
1001.7,3791.08
1001.97,3790.98
1002.23,3789.72
1002.5,3790.86
1002.77,3788.86
1003.04,3786.06
1003.31,3786.42
1003.57,3785.32
1003.84,3783.82
1004.11,3782.4
1004.38,3782.4
1004.65,3784.78
1004.91,3782.96
1005.18,3782.38
1005.45,3782.3
1005.72,3781.38
1005.98,3781.2
1006.25,3780.38
1006.52,3779.08
1006.79,3780.92
1007.06,3780.94
1007.32,3779.04
1007.59,3778.94
1007.86,3777.88
1008.13,3778.16
1008.4,3778.16
1008.66,3777.88
1008.93,3776.5
1009.2,3776.96
1009.47,3775.22
1009.73,3774.32
1010.0,3776.26
1010.27,3775.84
1010.54,3775.92
1010.81,3773.36
1011.07,3774.92
1011.34,3775.2
1011.61,3774.1
1011.88,3772.9
1012.14,3771.72
1012.41,3771.8
1012.68,3769.46
1012.95,3769.84
1013.21,3768.72
1013.48,3770.18
1013.75,3770.62
1014.02,3770.2
1014.29,3770.58
1014.55,3769.18
1014.82,3769.06
1015.09,3768.08
1015.36,3767.06
1015.62,3768.36
1015.89,3766.78
1016.16,3765.44
1016.43,3765.26
1016.69,3765.48
1016.96,3765.78
1017.23,3764.82
1017.5,3764.42
1017.76,3765.74
1018.03,3764.52
1018.3,3762.74
1018.57,3763.3
1018.83,3763.06
1019.1,3762.98
1019.37,3762.3
1019.63,3761.18
1019.9,3760.6
1020.17,3760.28
1020.44,3761.56
1020.7,3759.88
1020.97,3760.5
1021.24,3760.8
1021.51,3760.68
1021.77,3760.82
1022.04,3760.02
1022.31,3759.6
1022.58,3758.48
1022.84,3758.1
1023.11,3755.56
1023.38,3756.78
1023.64,3758.36
1023.91,3757.34
1024.18,3756.02
1024.45,3756.54
1024.71,3756.64
1024.98,3757.3
1025.25,3755.46
1025.51,3755.74
1025.78,3756.1
1026.05,3755.52
1026.32,3755.04
1026.58,3753.78
1026.85,3753.96
1027.12,3753.32
1027.38,3753.34
1027.65,3751.82
1027.92,3754.2
1028.19,3752.74
1028.45,3752.08
1028.72,3752.9
1028.99,3752.96
1029.25,3752.26
1029.52,3752.02
1029.79,3751.8
1030.05,3750.86
1030.32,3750.86
1030.59,3750.46
1030.85,3750.82
1031.12,3749.78
1031.39,3750.54
1031.66,3750.9
1031.92,3750.72
1032.19,3750.34
1032.46,3751.1
1032.72,3749.52
1032.99,3749.44
1033.26,3749.32
1033.52,3749.28
1033.79,3747.24
1034.06,3749.6
1034.32,3748.74
1034.59,3748.22
1034.86,3747.72
1035.12,3747.32
1035.39,3746.88
1035.66,3747.76
1035.92,3748.42
1036.19,3748.34
1036.46,3748.32
1036.72,3747.5
1036.99,3746.7
1037.26,3746.08
1037.52,3745.0
1037.79,3746.26
1038.06,3746.14
1038.32,3746.22
1038.59,3745.56
1038.86,3745.44
1039.12,3745.9
1039.39,3746.68
1039.66,3747.02
1039.92,3746.68
1040.19,3745.1
1040.46,3745.24
1040.72,3744.74
1040.99,3745.96
1041.26,3744.7
1041.52,3744.68
1041.79,3743.94
1042.06,3744.44
1042.32,3743.9
1042.59,3744.34
1042.86,3744.36
1043.12,3743.9
1043.39,3744.76
1043.65,3745.3
1043.92,3745.14
1044.19,3744.54
1044.45,3744.2
1044.72,3742.52
1044.99,3741.9
1045.25,3742.28
1045.52,3741.86
1045.79,3741.52
1046.05,3742.32
1046.32,3742.44
1046.58,3742.52
1046.85,3743.74
1047.12,3742.92
1047.38,3742.62
1047.65,3741.88
1047.92,3742.48
1048.18,3742.2
1048.45,3742.14
1048.71,3741.06
1048.98,3741.52
1049.25,3740.92
1049.51,3741.18
1049.78,3740.18
1050.04,3740.86
1050.31,3740.7
1050.58,3742.24
1050.84,3741.24
1051.11,3740.54
1051.37,3741.0
1051.64,3741.14
1051.91,3741.12
1052.17,3741.42
1052.44,3740.44
1052.7,3740.58
1052.97,3739.44
1053.24,3739.06
1053.5,3739.28
1053.77,3739.34
1054.03,3739.2
1054.3,3739.9
1054.57,3739.78
1054.83,3740.72
1055.1,3739.74
1055.36,3740.78
1055.63,3739.4
1055.9,3740.38
1056.16,3739.82
1056.43,3739.66
1056.69,3739.34
1056.96,3740.04
1057.23,3739.04
1057.49,3738.96
1057.76,3738.84
1058.02,3739.44
1058.29,3740.26
1058.55,3738.96
1058.82,3739.46
1059.09,3739.32
1059.35,3739.22
1059.62,3739.74
1059.88,3738.36
1060.15,3738.3
1060.41,3739.56
1060.68,3739.56
1060.95,3737.44
1061.21,3738.52
1061.48,3738.66
1061.74,3740.18
1062.01,3738.28
1062.27,3739.5
1062.54,3737.9
1062.8,3738.88
1063.07,3738.42
1063.34,3738.8
1063.6,3738.18
1063.87,3738.56
1064.13,3738.2
1064.4,3737.88
1064.66,3737.56
1064.93,3737.36
1065.19,3738.18
1065.46,3738.4
1065.73,3737.48
1065.99,3738.02
1066.26,3737.92
1066.52,3738.52
1066.79,3738.06
1067.05,3736.76
1067.32,3736.82
1067.58,3737.44
1067.85,3737.32
1068.11,3736.76
