nm,Intensity
526.495,829.4
526.632,829.8
526.768,828.5
526.905,828.8
527.042,828.3
527.179,829.8
527.315,830.2
527.452,828.9
527.589,829.1
527.725,829.5
527.862,830.7
527.999,829.2
528.136,830.0
528.272,829.4
528.409,829.3
528.546,829.5
528.682,828.3
528.819,829.4
528.955,830.3
529.092,828.9
529.229,828.6
529.365,829.3
529.502,828.8
529.639,828.7
529.775,830.3
529.912,829.4
530.048,829.0
530.185,828.8
530.321,829.1
530.458,829.1
530.594,829.9
530.731,829.3
530.867,828.4
531.004,829.0
531.14,829.4
531.277,829.9
531.413,829.0
531.55,829.8
531.686,831.1
531.823,827.9
531.959,834.4
532.096,861.7
532.232,874.3
532.369,839.1
532.505,830.3
532.641,829.9
532.778,828.3
532.914,829.4
533.051,827.9
533.187,828.9
533.323,829.2
533.46,830.5
533.596,844.1
533.732,950.7
533.869,1459.8
534.005,2272.9
534.141,2645.8
534.278,2625.2
534.414,2499.6
534.55,2353.2
534.687,2254.0
534.823,2098.3
534.959,1918.0
535.095,1750.9
535.232,1615.7
535.368,1500.9
535.504,1401.8
535.64,1328.7
535.777,1252.4
535.913,1204.1
536.049,1157.6
536.185,1123.7
536.321,1102.6
536.457,1083.5
536.594,1076.8
536.73,1063.2
536.866,1057.8
537.002,1054.0
537.138,1046.3
537.274,1035.8
537.41,1030.4
537.547,1025.5
537.683,1027.5
537.819,1026.5
537.955,1030.5
538.091,1032.3
538.227,1046.0
538.363,1056.5
538.499,1057.0
538.635,1053.7
538.771,1033.2
538.907,1010.2
539.043,985.8
539.179,962.4
539.315,942.1
539.451,937.3
539.587,934.2
539.723,932.3
539.859,924.7
539.995,928.9
540.131,925.1
540.267,924.6
540.403,919.2
540.539,915.8
540.675,916.9
540.811,910.8
540.947,908.2
541.083,910.9
541.219,910.4
541.354,912.7
541.49,913.0
541.626,912.7
541.762,907.3
541.898,910.2
542.034,905.4
542.17,903.7
542.305,907.8
542.441,905.8
542.577,901.2
542.713,903.7
542.849,905.2
542.984,910.2
543.12,906.0
543.256,914.4
543.392,912.5
543.528,919.6
543.663,921.1
543.799,921.1
543.935,925.0
544.071,922.4
544.206,917.9
544.342,912.5
544.478,905.3
544.613,907.9
544.749,901.6
544.885,901.5
545.02,897.2
545.156,895.6
545.292,894.1
545.427,893.0
545.563,892.3
545.699,891.6
545.834,886.7
545.97,889.9
546.106,887.4
546.241,887.5
546.377,890.4
546.512,887.7
546.648,886.4
546.784,886.1
546.919,886.1
547.055,886.0
547.19,887.2
547.326,885.4
547.461,888.7
547.597,892.6
547.732,893.2
547.868,893.9
548.003,895.8
548.139,894.2
548.274,890.5
548.41,894.4
548.545,893.3
548.681,891.4
548.816,888.6
548.952,886.5
549.087,884.3
549.223,885.5
549.358,886.9
549.494,887.5
549.629,881.7
549.764,884.4
549.9,883.0
550.035,890.7
550.171,913.7
550.306,981.3
550.441,985.8
550.577,914.2
550.712,890.8
550.847,884.0
550.983,878.5
551.118,876.1
551.253,876.9
551.389,874.4
551.524,876.1
551.659,875.8
551.795,874.8
551.93,871.3
552.065,869.9
552.201,872.6
552.336,875.2
552.471,872.0
552.606,874.9
552.742,875.1
552.877,876.7
553.012,876.9
553.147,873.9
553.283,872.2
553.418,872.9
553.553,877.0
553.688,880.4
553.823,887.9
553.959,895.3
554.094,903.4
554.229,908.0
554.364,914.9
554.499,921.9
554.634,923.1
554.769,919.8
554.905,918.7
555.04,909.5
555.175,913.3
555.31,920.0
555.445,939.0
555.58,958.8
555.715,975.2
555.85,954.7
555.985,930.5
556.121,912.9
556.256,902.4
556.391,891.6
556.526,886.4
556.661,881.7
556.796,884.8
556.931,891.4
557.066,897.2
557.201,899.7
557.336,894.3
557.471,888.8
557.606,883.0
557.741,886.7
557.876,883.6
558.011,889.0
558.146,882.5
558.281,886.0
558.416,880.9
558.551,881.4
558.685,882.8
558.82,887.6
558.955,891.7
559.09,895.7
559.225,892.7
559.36,887.5
559.495,881.9
559.63,875.0
559.765,880.1
559.9,877.5
560.034,876.0
560.169,882.3
560.304,879.4
560.439,881.5
560.574,878.5
560.709,877.5
560.843,884.1
560.978,887.1
561.113,884.0
561.248,891.7
561.383,897.5
561.517,908.0
561.652,938.2
561.787,987.7
561.922,1126.2
562.057,1626.7
562.191,1861.6
562.326,1298.5
562.461,984.2
562.596,921.6
562.73,924.9
562.865,984.2
563.0,1104.5
563.134,1157.3
563.269,1058.7
563.404,966.4
563.539,928.0
563.673,915.5
563.808,911.6
563.943,909.9
564.077,910.8
564.212,916.1
564.346,914.1
564.481,915.6
564.616,912.2
564.75,912.0
564.885,916.8
565.02,911.7
565.154,910.1
565.289,912.5
565.423,903.6
565.558,896.5
565.693,892.1
565.827,887.0
565.962,884.7
566.096,879.8
566.231,883.6
566.365,879.3
566.5,884.3
566.634,894.4
566.769,914.4
566.903,947.0
567.038,987.9
567.172,972.0
567.307,938.9
567.441,923.7
567.576,930.4
567.71,961.6
567.845,1018.1
567.979,1027.9
568.114,1019.4
568.248,1028.9
568.383,1048.1
568.517,1048.7
568.652,1028.1
568.786,988.1
568.92,952.4
569.055,936.3
569.189,925.8
569.324,917.9
569.458,913.5
569.592,910.8
569.727,904.9
569.861,904.4
569.996,903.5
570.13,903.2
570.264,902.9
570.399,900.5
570.533,902.9
570.667,900.0
570.802,898.2
570.936,903.2
571.07,905.1
571.205,902.5
571.339,903.9
571.473,909.2
571.607,910.6
571.742,918.4
571.876,917.8
572.01,913.9
572.144,921.7
572.279,930.3
572.413,934.2
572.547,940.5
572.681,938.3
572.816,944.6
572.95,935.0
573.084,923.9
573.218,924.0
573.353,914.2
573.487,912.4
573.621,914.0
573.755,919.0
573.889,918.0
574.023,915.5
574.158,916.8
574.292,906.8
574.426,902.4
574.56,901.6
574.694,893.7
574.828,895.5
574.963,895.4
575.097,895.8
575.231,896.5
575.365,896.9
575.499,895.3
575.633,896.2
575.767,896.4
575.901,894.4
576.035,902.8
576.169,914.9
576.303,927.0
576.438,941.3
576.572,956.3
576.706,964.1
576.84,950.5
576.974,927.3
577.108,907.0
577.242,900.1
577.376,898.8
577.51,897.1
577.644,895.4
577.778,898.7
577.912,898.1
578.046,898.5
578.18,896.9
578.314,900.5
578.448,896.2
578.582,895.4
578.716,896.9
578.85,897.1
578.984,897.0
579.117,897.6
579.251,902.1
579.385,899.4
579.519,894.0
579.653,900.2
579.787,899.3
579.921,896.4
580.055,899.3
580.189,897.6
580.323,899.3
580.456,899.6
580.59,903.1
580.724,909.1
580.858,920.1
580.992,945.6
581.126,994.4
581.26,983.5
581.393,956.1
581.527,981.7
581.661,1067.6
581.795,1163.6
581.929,1113.6
582.063,996.6
582.196,932.1
582.33,915.5
582.464,912.9
582.598,903.8
582.731,904.2
582.865,900.0
582.999,898.7
583.133,899.5
583.267,894.8
583.4,902.9
583.534,895.9
583.668,898.1
583.801,898.7
583.935,895.7
584.069,895.3
584.203,896.6
584.336,897.6
584.47,897.5
584.604,896.6
584.737,891.5
584.871,895.5
585.005,896.0
585.138,891.6
585.272,891.1
585.406,892.7
585.539,888.3
585.673,894.6
585.807,894.2
585.94,890.9
586.074,892.9
586.208,893.1
586.341,892.0
586.475,895.1
586.608,889.7
586.742,893.2
586.876,893.1
587.009,893.0
587.143,892.5
587.276,888.1
587.41,891.4
587.543,893.8
587.677,891.4
587.811,890.6
587.944,889.4
588.078,894.3
588.211,890.7
588.345,890.1
588.478,892.0
588.612,890.7
588.745,890.1
588.879,892.1
589.012,893.5
589.146,891.0
589.279,889.5
589.413,890.4
589.546,890.2
589.68,889.0
589.813,889.7
589.947,888.7
590.08,889.1
590.214,890.7
590.347,886.2
590.48,890.4
590.614,886.1
590.747,887.8
590.881,890.1
591.014,890.2
591.148,887.9
591.281,888.1
591.414,887.0
591.548,888.7
591.681,889.6
591.815,885.6
591.948,889.4
592.081,886.0
592.215,891.3
592.348,883.1
592.481,886.8
592.615,888.2
592.748,889.4
592.881,889.0
593.015,888.3
593.148,887.5
593.281,886.1
593.415,888.4
593.548,885.8
593.681,887.5
593.815,886.6
593.948,890.3
594.081,888.1
594.215,888.5
594.348,887.2
594.481,888.0
594.614,886.8
594.748,889.3
594.881,888.6
595.014,883.7
595.147,889.4
595.281,886.4
595.414,885.8
595.547,888.3
595.68,886.0
595.814,888.3
595.947,887.3
596.08,884.7
596.213,884.8
596.347,885.9
596.48,886.8
596.613,890.5
596.746,885.1
596.879,889.8
597.012,885.7
597.146,885.2
597.279,882.1
597.412,886.3
597.545,883.9
597.678,887.9
597.811,887.9
597.945,884.8
598.078,884.8
598.211,887.7
598.344,889.0
598.477,887.4
598.61,889.6
598.743,887.3
598.876,884.8
599.009,887.5
599.143,888.1
599.276,886.3
599.409,885.6
599.542,889.4
599.675,888.2
599.808,888.1
599.941,886.6
600.074,888.6
600.207,885.6
600.34,888.8
600.473,888.0
600.606,888.1
600.739,886.6
600.872,890.5
601.005,887.0
601.138,887.8
601.271,885.0
601.404,891.2
601.537,890.4
601.67,887.6
601.803,887.2
601.936,885.4
602.069,888.4
602.202,889.1
602.335,888.6
602.468,889.0
602.601,889.6
602.734,888.5
602.867,888.3
603.0,889.2
603.133,891.8
603.266,890.3
603.399,886.6
603.532,888.4
603.665,889.3
603.798,888.7
603.931,890.5
604.064,889.6
604.196,892.8
604.329,891.4
604.462,888.6
604.595,890.8
604.728,891.2
604.861,890.5
604.994,891.8
605.127,890.6
605.259,889.4
605.392,889.5
605.525,889.2
605.658,888.1
605.791,890.9
605.924,887.6
606.057,889.0
606.189,892.4
606.322,893.7
606.455,892.6
606.588,893.6
606.721,892.6
606.853,894.3
606.986,893.0
607.119,895.7
607.252,893.9
607.385,895.3
607.517,892.1
607.65,893.6
607.783,894.6
607.916,895.4
608.049,896.6
608.181,895.4
608.314,896.8
608.447,895.9
608.58,893.7
608.712,898.0
608.845,898.4
608.978,898.0
609.111,898.1
609.243,897.7
609.376,902.0
609.509,898.2
609.641,898.1
609.774,903.2
609.907,898.5
610.039,898.4
610.172,897.5
610.305,900.8
610.438,900.7
610.57,900.7
610.703,905.6
610.836,901.0
610.968,904.2
611.101,902.6
611.234,903.6
611.366,899.4
611.499,909.9
611.631,906.9
611.764,902.5
611.897,904.2
612.029,903.8
612.162,907.2
612.295,908.9
612.427,910.3
612.56,909.9
612.692,907.3
612.825,906.2
612.958,912.3
613.09,910.4
613.223,913.4
613.355,913.4
613.488,910.6
613.621,910.0
613.753,913.7
613.886,916.4
614.018,910.0
614.151,912.5
614.283,917.3
614.416,914.6
614.548,915.9
614.681,913.4
614.814,915.7
614.946,917.9
615.079,915.9
615.211,912.3
615.344,914.7
615.476,914.6
615.609,917.1
615.741,913.4
615.874,916.2
616.006,920.0
616.139,915.3
616.271,919.6
616.404,919.5
616.536,922.1
616.669,920.7
616.801,924.9
616.933,926.3
617.066,926.2
617.198,927.3
617.331,926.2
617.463,926.7
617.596,924.8
617.728,928.5
617.861,930.0
617.993,929.7
618.125,930.1
618.258,930.3
618.39,930.4
618.523,930.7
618.655,929.2
618.788,927.7
618.92,928.8
619.052,922.6
619.185,923.5
619.317,930.3
619.45,924.8
619.582,928.8
619.714,926.8
619.847,923.8
619.979,929.5
620.111,927.8
620.244,925.9
620.376,927.9
620.509,925.3
620.641,927.5
620.773,928.8
620.906,927.1
621.038,931.3
621.17,928.0
621.303,924.1
621.435,932.4
621.567,928.4
621.7,928.7
621.832,929.0
621.964,926.8
622.096,929.1
622.229,933.9
622.361,933.0
622.493,932.2
622.626,932.8
622.758,931.3
622.89,933.5
623.022,934.4
623.155,931.4
623.287,931.7
623.419,934.8
623.552,935.4
623.684,932.5
623.816,932.9
623.948,931.2
624.081,930.8
624.213,930.9
624.345,932.3
624.477,940.5
624.61,938.2
624.742,934.3
624.874,938.9
625.006,933.3
625.138,936.8
625.271,931.6
625.403,933.5
625.535,931.5
625.667,936.9
625.799,933.8
625.932,937.3
626.064,938.7
626.196,939.0
626.328,937.6
626.46,940.2
626.593,948.4
626.725,956.8
626.857,972.3
626.989,991.9
627.121,1030.5
627.253,1046.4
627.386,1051.7
627.518,1058.0
627.65,1048.2
627.782,1031.9
627.914,1023.2
628.046,1014.4
628.178,1015.7
628.311,1017.8
628.443,1027.4
628.575,1045.3
628.707,1064.9
628.839,1079.4
628.971,1104.1
629.103,1135.1
629.235,1155.4
629.367,1169.8
629.5,1179.5
629.632,1174.6
629.764,1170.4
629.896,1157.9
630.028,1142.5
630.16,1130.8
630.292,1115.4
630.424,1095.7
630.556,1083.7
630.688,1069.7
630.82,1065.0
630.952,1043.9
631.084,1026.3
631.216,1014.4
631.349,1001.1
631.481,998.4
631.613,990.6
631.745,988.9
631.877,986.7
632.009,986.8
632.141,997.1
632.273,1009.1
632.405,1018.9
632.537,1007.1
632.669,987.3
632.801,976.2
632.933,979.3
633.065,976.5
633.197,994.8
633.329,1014.8
633.461,1009.1
633.593,997.3
633.725,982.3
633.857,978.7
633.989,993.6
634.121,1007.9
634.253,1043.2
634.385,1086.8
634.517,1135.4
634.649,1164.1
634.781,1207.5
634.912,1216.9
635.044,1252.7
635.176,1352.0
635.308,1511.7
635.44,1588.1
635.572,1580.3
635.704,1543.3
635.836,1510.2
635.968,1393.7
636.1,1284.0
636.232,1185.9
636.364,1113.4
636.496,1067.4
636.628,1052.4
636.76,1026.7
636.891,1005.7
637.023,989.4
637.155,989.8
637.287,978.8
637.419,972.3
637.551,976.2
637.683,975.1
637.815,961.2
637.947,965.3
638.078,963.8
638.21,960.5
638.342,958.5
638.474,954.5
638.606,958.7
638.738,958.6
638.87,956.1
639.002,953.8
639.133,949.5
639.265,950.7
639.397,955.9
639.529,954.5
639.661,963.0
639.793,966.0
639.924,967.6
640.056,966.0
640.188,959.3
640.32,961.0
640.452,956.7
640.584,954.0
640.715,950.5
640.847,953.5
640.979,956.0
641.111,958.2
641.243,957.4
641.374,964.5
641.506,969.5
641.638,962.7
641.77,964.7
641.902,950.9
642.033,953.8
642.165,948.2
642.297,948.1
642.429,946.6
642.561,948.0
642.692,946.3
642.824,943.0
642.956,945.2
643.088,944.5
643.219,946.3
643.351,949.6
643.483,946.0
643.615,946.4
643.746,950.1
643.878,941.6
644.01,947.4
644.142,943.2
644.273,942.2
644.405,940.4
644.537,942.0
644.669,944.9
644.8,948.2
644.932,941.0
645.064,944.5
645.195,946.1
645.327,940.6
645.459,944.9
645.591,945.3
645.722,947.1
645.854,945.7
645.986,946.1
646.117,943.4
646.249,940.5
646.381,947.3
646.512,943.7
646.644,949.0
646.776,945.3
646.908,949.0
647.039,950.6
647.171,943.2
647.303,944.6
647.434,944.5
647.566,948.1
647.698,946.9
647.829,949.7
647.961,949.8
648.093,946.3
648.224,944.9
648.356,948.6
648.488,945.3
648.619,948.1
648.751,939.0
648.883,946.3
649.014,947.9
649.146,944.1
649.277,948.6
649.409,949.1
649.541,944.7
649.672,947.3
649.804,950.2
649.936,945.6
650.067,948.6
650.199,945.2
650.33,947.7
650.462,945.1
650.594,948.3
650.725,944.0
650.857,942.8
650.988,951.7
651.12,945.7
651.252,948.6
651.383,947.7
651.515,946.8
651.646,948.6
651.778,946.7
651.91,952.0
652.041,950.7
652.173,946.6
652.304,948.0
652.436,950.6
652.568,948.7
652.699,951.9
652.831,945.3
652.962,946.9
653.094,946.6
653.225,947.7
653.357,947.8
653.489,947.3
653.62,952.0
653.752,946.6
653.883,948.4
654.015,951.1
654.146,955.2
654.278,951.1
654.409,950.0
654.541,949.1
654.672,947.2
654.804,952.0
654.935,950.3
655.067,949.2
655.199,946.6
655.33,953.9
655.462,951.0
655.593,951.6
655.725,950.8
655.856,954.0
655.988,947.8
656.119,948.3
656.251,952.6
656.382,950.2
656.514,952.5
656.645,954.3
656.777,950.1
656.908,953.5
657.04,953.0
657.171,953.7
657.303,953.3
657.434,951.7
657.566,952.4
657.697,948.7
657.829,952.2
657.96,950.3
658.092,953.2
658.223,954.4
658.355,953.1
658.486,949.2
658.617,950.8
658.749,955.2
658.88,950.5
659.012,958.4
659.143,953.2
659.275,954.3
659.406,953.7
659.538,952.3
659.669,953.7
659.801,954.2
659.932,955.4
660.064,954.7
660.195,955.9
660.326,953.4
660.458,952.1
660.589,954.5
660.721,951.2
660.852,954.0
660.984,950.8
661.115,953.2
661.246,957.8
661.378,954.4
661.509,952.1
661.641,951.1
661.772,954.9
661.904,957.0
662.035,952.3
662.166,953.9
662.298,957.5
662.429,952.6
662.561,955.1
662.692,954.5
662.823,951.5
662.955,954.2
663.086,952.6
