nm,Intensity
791.377,6786.44
791.652,6712.36
791.927,6685.64
792.202,6571.18
792.477,6612.5
792.752,6486.46
793.027,6603.62
793.301,6648.46
793.576,6427.1
793.851,6416.6
794.126,6303.84
794.401,6335.96
794.676,6344.3
794.951,6284.76
795.225,6293.94
795.5,6272.88
795.775,6236.58
796.05,6374.72
796.325,6363.02
796.599,6164.5
796.874,6140.74
797.149,6021.02
797.424,6004.4
797.698,6020.48
797.973,6073.28
798.248,6072.06
798.523,5833.14
798.797,5882.4
799.072,5893.68
799.347,5784.14
799.622,5839.22
799.896,5877.2
800.171,5778.04
800.446,5858.86
800.72,5788.06
800.995,5733.88
801.27,5707.1
801.544,5609.08
801.819,5537.16
802.094,5578.28
802.368,5569.86
802.643,5579.12
802.918,5578.38
803.192,5449.0
803.467,5509.8
803.742,5514.64
804.016,5436.66
804.291,5463.24
804.565,5425.56
804.84,5350.0
805.114,5412.42
805.389,5419.26
805.664,5401.78
805.938,5345.2
806.213,5321.42
806.487,5286.84
806.762,5274.32
807.036,5215.22
807.311,5219.78
807.585,5314.02
807.86,5279.62
808.134,5238.7
808.409,5228.62
808.683,5101.7
808.958,5171.34
809.232,5160.28
809.507,5123.6
809.781,5173.68
810.056,5281.26
810.33,5221.62
810.605,5166.32
810.879,5153.76
811.153,5091.22
811.428,5051.46
811.702,5082.3
811.977,5064.0
812.251,5044.38
812.525,5000.26
812.8,5053.9
813.074,5045.46
813.349,5024.04
813.623,5043.82
813.897,5007.56
814.172,4978.88
814.446,4934.12
814.72,4940.78
814.995,4949.52
815.269,4941.86
815.543,4913.28
815.818,4903.3
816.092,4875.64
816.366,4882.44
816.64,4858.78
816.915,4852.8
817.189,4883.68
817.463,4879.36
817.737,4840.86
818.012,4831.18
818.286,4810.18
818.56,4819.6
818.834,4837.84
819.109,4838.14
819.383,4816.26
819.657,4788.46
819.931,4786.12
820.205,4788.86
820.48,4770.84
820.754,4788.56
821.028,4753.96
821.302,4722.4
821.576,4692.78
821.85,4727.48
822.125,4717.7
822.399,4704.12
822.673,4679.36
822.947,4689.22
823.221,4698.6
823.495,4710.22
823.769,4707.3
824.043,4674.3
824.317,4684.98
824.591,4693.58
824.865,4650.92
825.14,4661.14
825.414,4657.44
825.688,4652.32
825.962,4652.32
826.236,4626.48
826.51,4632.94
826.784,4627.04
827.058,4591.14
827.332,4567.02
827.606,4601.92
827.88,4593.96
828.154,4611.42
828.428,4583.88
828.702,4585.58
828.976,4567.22
829.249,4576.88
829.523,4569.48
829.797,4571.7
830.071,4547.18
830.345,4537.92
830.619,4585.22
830.893,4559.14
831.167,4538.66
831.441,4522.02
831.715,4517.34
831.988,4508.8
832.262,4481.68
832.536,4518.2
832.81,4513.14
833.084,4509.56
833.358,4522.38
833.632,4511.7
833.905,4510.88
834.179,4497.64
834.453,4489.2
834.727,4497.38
835.001,4480.34
835.274,4528.98
835.548,4527.1
835.822,4464.96
836.096,4468.8
836.369,4472.0
836.643,4457.56
836.917,4465.5
837.191,4472.14
837.464,4503.76
837.738,4570.98
838.012,4648.4
838.285,4622.56
838.559,4581.28
838.833,4521.22
839.106,4471.46
839.38,4473.96
839.654,4494.2
839.927,4509.58
840.201,4538.1
840.475,4546.44
840.748,4511.12
841.022,4479.42
841.295,4456.9
841.569,4421.16
841.843,4397.54
842.116,4420.74
842.39,4408.26
842.663,4404.76
842.937,4387.28
843.211,4408.06
843.484,4400.22
843.758,4399.82
844.031,4408.3
844.305,4387.9
844.578,4388.34
844.852,4371.92
845.125,4387.22
845.399,4384.4
845.672,4386.14
845.946,4371.8
846.219,4366.66
846.493,4372.66
846.766,4361.36
847.039,4391.0
847.313,4397.72
847.586,4396.98
847.86,4387.98
848.133,4354.44
848.407,4362.6
848.68,4362.82
848.953,4383.5
849.227,4396.98
849.5,4405.8
849.773,4417.44
850.047,4399.04
850.32,4373.14
850.593,4363.3
850.867,4362.18
851.14,4363.74
851.413,4391.64
851.687,4399.76
851.96,4378.52
852.233,4360.32
852.507,4343.5
852.78,4344.62
853.053,4334.34
853.326,4340.4
853.6,4344.34
853.873,4350.86
854.146,4336.38
854.419,4359.68
854.693,4361.4
854.966,4352.84
855.239,4335.36
855.512,4320.06
855.785,4335.74
856.059,4344.38
856.332,4320.44
856.605,4326.72
856.878,4320.82
857.151,4302.6
857.424,4296.74
857.698,4310.62
857.971,4315.88
858.244,4314.8
858.517,4335.2
858.79,4315.74
859.063,4309.68
859.336,4313.12
859.609,4304.0
859.882,4312.88
860.155,4317.12
860.428,4314.6
860.701,4311.22
860.974,4301.24
861.247,4299.44
861.52,4298.08
861.793,4313.62
862.066,4323.0
862.339,4350.18
862.612,4350.82
862.885,4368.18
863.158,4368.58
863.431,4382.0
863.704,4390.46
863.977,4380.6
864.25,4376.84
864.523,4342.92
864.796,4316.52
865.069,4305.52
865.342,4300.72
865.615,4287.24
865.888,4285.08
866.16,4286.78
866.433,4289.46
866.706,4282.86
866.979,4280.14
867.252,4277.82
867.525,4286.14
867.798,4305.06
868.07,4296.16
868.343,4291.44
868.616,4279.82
868.889,4290.26
869.162,4289.24
869.434,4299.26
869.707,4279.42
869.98,4256.78
870.253,4268.38
870.525,4273.82
870.798,4263.06
871.071,4261.94
871.344,4252.42
871.616,4260.6
871.889,4254.78
872.162,4249.06
872.434,4237.2
872.707,4252.62
872.98,4265.8
873.252,4265.26
873.525,4258.76
873.798,4263.94
874.07,4260.42
874.343,4259.0
874.615,4255.0
874.888,4260.98
875.161,4279.48
875.433,4277.92
875.706,4288.92
875.978,4306.22
876.251,4306.48
876.524,4308.12
876.796,4283.14
877.069,4271.24
877.341,4282.24
877.614,4276.2
877.886,4275.1
878.159,4260.2
878.431,4241.32
878.704,4237.1
878.976,4230.88
879.249,4224.4
879.521,4227.9
879.794,4219.08
880.066,4202.14
880.338,4185.86
880.611,4194.68
880.883,4181.7
881.156,4179.88
881.428,4182.36
881.7,4180.94
881.973,4176.88
882.245,4177.44
882.518,4176.72
882.79,4180.8
883.062,4191.8
883.335,4184.48
883.607,4176.0
883.879,4180.46
884.152,4194.96
884.424,4207.82
884.696,4215.14
884.968,4219.78
885.241,4232.16
885.513,4247.28
885.785,4258.48
886.058,4261.92
886.33,4261.28
886.602,4236.18
886.874,4220.8
887.146,4202.72
887.419,4205.7
887.691,4181.86
887.963,4166.84
888.235,4141.1
888.507,4126.82
888.78,4118.12
889.052,4128.14
889.324,4127.84
889.596,4121.94
889.868,4119.4
890.14,4119.9
890.412,4119.16
890.684,4108.42
890.957,4122.0
891.229,4125.64
891.501,4132.88
891.773,4139.18
892.045,4150.22
892.317,4146.5
892.589,4128.92
892.861,4109.32
893.133,4093.5
893.405,4086.82
893.677,4078.64
893.949,4092.32
894.221,4094.66
894.493,4082.96
894.765,4078.48
895.037,4074.86
895.309,4073.36
895.581,4077.06
895.853,4076.26
896.125,4071.02
896.397,4066.6
896.668,4061.84
896.94,4058.24
897.212,4059.66
897.484,4065.38
897.756,4055.64
898.028,4056.98
898.3,4065.82
898.571,4060.2
898.843,4051.7
899.115,4051.66
899.387,4041.26
899.659,4035.56
899.931,4036.2
900.202,4036.94
900.474,4036.6
900.746,4034.72
901.018,4038.2
901.289,4028.72
901.561,4013.04
901.833,4015.6
902.105,4020.76
902.376,4026.94
902.648,4025.94
902.92,4022.56
903.191,4027.88
903.463,4016.9
903.735,4015.54
904.006,4018.36
904.278,4015.44
904.55,4007.16
904.821,4009.28
905.093,4013.64
905.365,4003.62
905.636,4000.16
905.908,3998.92
906.179,3998.82
906.451,3995.84
906.722,3997.08
906.994,3991.82
907.266,3993.52
907.537,3994.86
907.809,3991.22
908.08,3985.58
908.352,3985.88
908.623,3979.58
908.895,3984.98
909.166,3975.1
909.438,3970.78
909.709,3971.34
909.981,3968.34
910.252,3969.9
910.523,3969.0
910.795,3969.42
911.066,3969.88
911.338,3968.54
911.609,3967.94
911.881,3966.52
912.152,3961.94
912.423,3957.84
912.695,3956.56
912.966,3957.9
913.237,3954.06
913.509,3959.02
913.78,3958.34
914.051,3954.26
914.323,3952.28
914.594,3943.54
914.865,3943.06
915.136,3942.7
915.408,3946.06
915.679,3941.14
915.95,3938.88
916.221,3940.18
916.493,3940.9
916.764,3941.5
917.035,3941.04
917.306,3939.46
917.578,3936.12
917.849,3937.58
918.12,3938.72
918.391,3934.96
918.662,3932.44
918.933,3933.7
919.204,3934.24
919.476,3929.94
919.747,3923.94
920.018,3924.6
920.289,3926.3
920.56,3925.22
920.831,3922.34
921.102,3916.72
921.373,3924.32
921.644,3921.0
921.915,3916.64
922.186,3914.56
922.457,3917.98
922.728,3916.18
922.999,3917.64
923.27,3910.8
923.541,3909.18
923.812,3909.5
924.083,3913.56
924.354,3909.54
924.625,3905.78
924.896,3903.36
925.167,3903.74
925.438,3908.42
925.709,3903.16
925.98,3902.26
926.251,3898.18
926.522,3898.98
926.792,3896.12
927.063,3898.88
927.334,3898.52
927.605,3898.08
927.876,3896.52
928.147,3892.08
928.417,3894.94
928.688,3893.52
928.959,3893.7
929.23,3892.18
929.501,3889.24
929.771,3884.68
930.042,3883.92
930.313,3885.5
930.584,3885.72
930.854,3881.06
931.125,3880.92
931.396,3882.88
931.666,3880.3
931.937,3878.98
932.208,3876.98
932.478,3874.08
932.749,3875.88
933.02,3873.94
933.29,3875.56
933.561,3875.34
933.832,3876.54
934.102,3873.26
934.373,3869.02
934.643,3867.6
934.914,3866.44
935.184,3865.36
935.455,3867.68
935.726,3865.46
935.996,3864.42
936.267,3861.84
936.537,3862.16
936.808,3863.04
937.078,3864.06
937.349,3861.64
937.619,3861.52
937.89,3858.64
938.16,3859.72
938.43,3856.72
938.701,3856.4
938.971,3856.6
939.242,3856.44
939.512,3856.28
939.782,3857.56
940.053,3856.88
940.323,3857.42
940.594,3855.28
940.864,3855.14
941.134,3851.46
941.405,3850.0
941.675,3852.38
941.945,3856.7
942.216,3851.36
942.486,3849.76
942.756,3848.64
943.026,3844.18
943.297,3848.72
943.567,3846.46
943.837,3845.14
944.107,3842.88
944.378,3844.6
944.648,3845.42
944.918,3845.14
945.188,3843.66
945.458,3842.32
945.729,3842.08
945.999,3842.78
946.269,3842.78
946.539,3839.96
946.809,3838.04
947.079,3839.02
947.349,3838.74
947.62,3837.98
947.89,3839.26
948.16,3839.88
948.43,3839.88
948.7,3838.38
948.97,3834.44
949.24,3832.3
949.51,3833.16
949.78,3832.06
950.05,3834.2
950.32,3833.78
950.59,3833.6
950.86,3832.3
951.13,3832.46
951.4,3831.72
951.67,3833.96
951.94,3831.18
952.21,3830.14
952.48,3831.06
952.75,3829.06
953.02,3827.46
953.289,3830.3
953.559,3827.84
953.829,3827.86
954.099,3825.68
954.369,3825.2
954.639,3824.62
954.909,3826.02
955.178,3827.72
955.448,3826.28
955.718,3826.06
955.988,3826.56
956.257,3826.66
956.527,3824.74
956.797,3823.2
957.067,3823.16
957.336,3821.66
957.606,3823.58
957.876,3822.36
958.146,3821.98
958.415,3820.98
958.685,3822.46
958.955,3821.62
959.224,3822.92
959.494,3822.26
959.764,3820.64
960.033,3819.34
960.303,3818.86
960.572,3819.42
960.842,3819.6
961.112,3816.84
961.381,3816.92
961.651,3815.84
961.92,3817.16
962.19,3816.46
962.459,3816.2
962.729,3815.7
962.998,3814.42
963.268,3815.26
963.537,3817.18
963.807,3814.26
964.076,3813.44
964.346,3813.58
964.615,3813.4
964.885,3812.94
965.154,3814.9
965.424,3814.56
965.693,3813.34
965.962,3813.28
966.232,3811.18
966.501,3812.46
966.771,3811.34
967.04,3810.18
967.309,3810.08
967.579,3810.04
967.848,3811.34
968.117,3808.98
968.387,3807.9
968.656,3809.86
968.925,3808.98
969.194,3808.3
969.464,3808.98
969.733,3808.28
970.002,3809.12
970.271,3807.9
970.541,3807.7
970.81,3806.1
971.079,3806.58
971.348,3807.54
971.617,3806.16
971.887,3806.12
972.156,3806.66
972.425,3805.36
972.694,3805.8
972.963,3805.16
973.232,3805.88
973.501,3804.08
973.77,3805.26
974.04,3804.06
974.309,3805.64
974.578,3804.34
974.847,3803.52
975.116,3802.52
975.385,3803.2
975.654,3802.42
975.923,3802.64
976.192,3801.54
976.461,3800.68
976.73,3800.28
976.999,3801.18
977.268,3800.26
977.537,3800.94
977.806,3800.72
978.074,3800.22
978.343,3799.64
978.612,3798.72
978.881,3800.58
979.15,3799.56
979.419,3798.66
979.688,3798.6
979.957,3799.66
980.225,3796.78
980.494,3798.04
980.763,3797.22
981.032,3798.4
981.301,3798.04
981.569,3798.26
981.838,3797.94
982.107,3798.46
982.376,3796.96
982.644,3797.92
982.913,3796.74
983.182,3797.62
983.451,3796.54
983.719,3795.76
983.988,3796.92
984.257,3795.66
984.525,3797.02
984.794,3795.52
985.063,3794.46
985.331,3793.82
985.6,3795.68
985.868,3796.9
986.137,3796.5
986.406,3794.46
986.674,3793.46
986.943,3795.46
987.211,3795.22
987.48,3794.06
987.748,3794.84
988.017,3794.3
988.285,3794.22
988.554,3792.7
988.822,3794.84
989.091,3794.14
989.359,3793.38
989.628,3792.36
989.896,3792.2
990.164,3790.64
990.433,3792.32
990.701,3793.68
990.97,3793.92
991.238,3792.88
991.506,3794.52
991.775,3792.12
992.043,3791.52
992.311,3792.44
992.58,3792.3
992.848,3791.74
993.116,3791.14
993.385,3790.48
993.653,3791.28
993.921,3789.86
994.19,3791.46
994.458,3790.5
994.726,3791.46
994.994,3790.8
995.262,3790.98
995.531,3790.7
995.799,3791.3
996.067,3790.62
996.335,3791.84
996.603,3791.58
996.872,3791.14
997.14,3791.42
997.408,3790.48
997.676,3791.12
997.944,3792.84
998.212,3790.88
998.48,3790.42
998.748,3791.82
999.016,3790.54
999.284,3790.52
999.552,3789.68
999.82,3789.5
1000.09,3789.54
1000.36,3787.6
1000.62,3788.36
1000.89,3788.18
1001.16,3787.38
1001.43,3788.62
1001.7,3787.78
1001.96,3787.12
1002.23,3786.96
1002.5,3786.2
1002.77,3786.86
1003.04,3786.54
1003.3,3786.16
1003.57,3785.02
1003.84,3786.78
1004.11,3784.74
1004.38,3785.3
1004.64,3785.1
1004.91,3785.12
1005.18,3785.24
1005.45,3784.88
1005.71,3784.64
1005.98,3784.06
1006.25,3785.08
1006.52,3785.14
1006.79,3784.88
1007.05,3784.48
1007.32,3784.98
1007.59,3784.32
1007.86,3785.24
1008.12,3785.04
1008.39,3786.54
1008.66,3787.36
1008.93,3789.3
1009.19,3789.84
1009.46,3791.94
1009.73,3793.2
1010.0,3793.56
1010.26,3796.22
1010.53,3795.48
1010.8,3796.42
1011.07,3796.4
1011.33,3796.98
1011.6,3797.6
1011.87,3799.62
1012.14,3800.9
1012.4,3799.66
1012.67,3799.38
1012.94,3803.3
1013.21,3804.22
1013.47,3806.14
1013.74,3806.28
1014.01,3809.96
1014.28,3809.2
1014.54,3808.08
1014.81,3810.88
1015.08,3811.76
1015.35,3810.04
1015.61,3809.6
1015.88,3809.8
1016.15,3807.98
1016.42,3806.8
1016.68,3806.1
1016.95,3803.32
1017.22,3802.46
1017.48,3802.54
1017.75,3801.04
1018.02,3798.22
1018.29,3800.32
1018.55,3797.02
1018.82,3797.16
1019.09,3796.62
1019.36,3795.2
1019.62,3793.44
1019.89,3791.84
1020.16,3790.84
1020.42,3791.22
1020.69,3790.78
1020.96,3790.38
1021.23,3790.7
1021.49,3789.08
1021.76,3790.16
1022.03,3789.7
1022.29,3790.36
1022.56,3789.74
1022.83,3788.78
1023.09,3788.08
1023.36,3788.92
1023.63,3788.46
1023.9,3786.88
1024.16,3785.88
1024.43,3784.24
1024.7,3783.44
1024.96,3781.4
1025.23,3781.84
1025.5,3780.34
1025.76,3780.24
1026.03,3778.46
1026.3,3778.18
1026.56,3776.86
1026.83,3776.66
1027.1,3777.06
1027.37,3776.78
1027.63,3777.42
1027.9,3776.74
1028.17,3777.36
1028.43,3777.04
1028.7,3777.68
1028.97,3776.32
1029.23,3776.72
1029.5,3775.84
1029.77,3776.24
1030.03,3776.46
1030.3,3775.98
1030.57,3776.4
1030.83,3776.44
1031.1,3775.5
1031.37,3776.16
1031.63,3776.26
1031.9,3776.16
1032.17,3776.46
1032.43,3775.08
1032.7,3776.18
1032.97,3775.36
1033.23,3775.42
1033.5,3776.02
1033.77,3775.52
1034.03,3775.56
1034.3,3775.28
1034.57,3775.8
1034.83,3775.3
1035.1,3775.0
1035.36,3775.34
1035.63,3775.54
1035.9,3776.04
1036.16,3775.1
1036.43,3775.6
1036.7,3774.76
1036.96,3774.6
1037.23,3774.86
1037.5,3775.14
1037.76,3774.36
1038.03,3774.88
1038.3,3774.2
1038.56,3774.16
1038.83,3774.94
1039.09,3774.76
1039.36,3774.56
1039.63,3774.74
1039.89,3774.56
1040.16,3776.32
1040.43,3775.04
1040.69,3774.72
1040.96,3774.42
1041.22,3774.12
1041.49,3773.66
1041.76,3773.72
1042.02,3774.0
1042.29,3773.96
1042.55,3774.12
1042.82,3774.58
1043.09,3773.48
1043.35,3774.02
1043.62,3774.36
1043.89,3774.06
1044.15,3773.6
1044.42,3775.4
1044.68,3774.36
1044.95,3774.64
1045.22,3774.38
1045.48,3773.42
1045.75,3773.7
1046.01,3773.7
1046.28,3773.14
1046.55,3774.38
1046.81,3773.18
1047.08,3773.7
1047.34,3773.7
1047.61,3774.08
1047.88,3773.74
1048.14,3773.48
1048.41,3774.22
1048.67,3774.04
1048.94,3773.7
1049.2,3773.48
1049.47,3773.32
1049.74,3772.54
1050.0,3773.2
1050.27,3771.76
1050.53,3772.74
1050.8,3772.62
1051.06,3773.62
1051.33,3773.16
1051.6,3773.9
1051.86,3773.72
1052.13,3774.06
1052.39,3773.54
1052.66,3773.3
1052.92,3773.06
1053.19,3772.7
1053.46,3773.4
1053.72,3772.76
1053.99,3772.94
1054.25,3773.04
1054.52,3773.28
1054.78,3772.78
1055.05,3773.1
1055.32,3774.06
1055.58,3774.04
1055.85,3772.9
1056.11,3773.7
1056.38,3773.24
1056.64,3772.66
1056.91,3772.82
1057.17,3773.24
1057.44,3771.6
1057.7,3772.88
1057.97,3772.06
1058.24,3773.84
1058.5,3772.42
1058.77,3772.44
1059.03,3773.32
1059.3,3772.58
1059.56,3773.28
1059.83,3773.18
1060.09,3772.74
1060.36,3774.16
1060.62,3773.06
1060.89,3773.02
1061.15,3772.52
1061.42,3773.64
1061.68,3773.04
1061.95,3773.84
1062.22,3772.78
1062.48,3773.08
1062.75,3772.3
1063.01,3773.04
1063.28,3772.78
1063.54,3772.98
1063.81,3772.24
1064.07,3772.28
1064.34,3772.76
1064.6,3772.14
1064.87,3771.8
1065.13,3772.38
1065.4,3772.48
1065.66,3772.14
1065.93,3772.04
1066.19,3772.48
1066.46,3772.44
1066.72,3772.74
1066.99,3771.64
1067.25,3771.64
1067.52,3772.28
1067.78,3772.14
1068.05,3771.4
