cm-1,A
4000.0,0.0013
3999.0,0.0012
3998.0,0.0011
3997.0,0.0011
3996.0,0.001
3995.0,0.0011
3994.0,0.0012
3993.0,0.0014
3992.0,0.0015
3991.0,0.0015
3990.0,0.0014
3989.0,0.0013
3988.0,0.0012
3987.0,0.0012
3986.0,0.0012
3985.0,0.0012
3984.0,0.0012
3983.0,0.0012
3982.0,0.0013
3981.0,0.0014
3980.0,0.0014
3979.0,0.0014
3978.0,0.0013
3977.0,0.0013
3976.0,0.0012
3975.0,0.0012
3974.0,0.0012
3973.0,0.0013
3972.0,0.0013
3971.0,0.0013
3970.0,0.0013
3969.0,0.0013
3968.0,0.0013
3967.0,0.0013
3966.0,0.0013
3965.0,0.0014
3964.0,0.0014
3963.0,0.0013
3962.0,0.0013
3961.0,0.0013
3960.0,0.0013
3959.0,0.0013
3958.0,0.0013
3957.0,0.0014
3956.0,0.0014
3955.0,0.0015
3954.0,0.0015
3953.0,0.0015
3952.0,0.0016
3951.0,0.0016
3950.0,0.0016
3949.0,0.0015
3948.0,0.0015
3947.0,0.0015
3946.0,0.0016
3945.0,0.0016
3944.0,0.0016
3943.0,0.0016
3942.0,0.0015
3941.0,0.0014
3940.0,0.0014
3939.0,0.0014
3938.0,0.0013
3937.0,0.0013
3936.0,0.0014
3935.0,0.0015
3934.0,0.0015
3933.0,0.0016
3932.0,0.0017
3931.0,0.0017
3930.0,0.0018
3929.0,0.0018
3928.0,0.0018
3927.0,0.0017
3926.0,0.0017
3925.0,0.0016
3924.0,0.0015
3923.0,0.0014
3922.0,0.0014
3921.0,0.0013
3920.0,0.0013
3919.0,0.0013
3918.0,0.0013
3917.0,0.0013
3916.0,0.0014
3915.0,0.0014
3914.0,0.0015
3913.0,0.0015
3912.0,0.0015
3911.0,0.0015
3910.0,0.0015
3909.0,0.0014
3908.0,0.0014
3907.0,0.0015
3906.0,0.0015
3905.0,0.0015
3904.0,0.0015
3903.0,0.0015
3902.0,0.0014
3901.0,0.0014
3900.0,0.0014
3899.0,0.0013
3898.0,0.0013
3897.0,0.0013
3896.0,0.0013
3895.0,0.0014
3894.0,0.0014
3893.0,0.0013
3892.0,0.0012
3891.0,0.0012
3890.0,0.0012
3889.0,0.0012
3888.0,0.0012
3887.0,0.0012
3886.0,0.0011
3885.0,0.0012
3884.0,0.0013
3883.0,0.0015
3882.0,0.0016
3881.0,0.0016
3880.0,0.0015
3879.0,0.0014
3878.0,0.0015
3877.0,0.0015
3876.0,0.0015
3875.0,0.0014
3874.0,0.0012
3873.0,0.0011
3872.0,0.0011
3871.0,0.0011
3870.0,0.0012
3869.0,0.0013
3868.0,0.0013
3867.0,0.0014
3866.0,0.0013
3865.0,0.0013
3864.0,0.0014
3863.0,0.0015
3862.0,0.0015
3861.0,0.0015
3860.0,0.0015
3859.0,0.0014
3858.0,0.0012
3857.0,0.001
3856.0,0.0009
3855.0,0.0009
3854.0,0.0011
3853.0,0.0014
3852.0,0.0016
3851.0,0.0016
3850.0,0.0015
3849.0,0.0014
3848.0,0.0014
3847.0,0.0014
3846.0,0.0015
3845.0,0.0016
3844.0,0.0016
3843.0,0.0015
3842.0,0.0015
3841.0,0.0014
3840.0,0.0013
3839.0,0.0012
3838.0,0.0011
3837.0,0.0012
3836.0,0.0013
3835.0,0.0013
3834.0,0.0014
3833.0,0.0014
3832.0,0.0013
3831.0,0.0014
3830.0,0.0014
3829.0,0.0015
3828.0,0.0015
3827.0,0.0015
3826.0,0.0014
3825.0,0.0013
3824.0,0.0012
3823.0,0.0011
3822.0,0.001
3821.0,0.0011
3820.0,0.0012
3819.0,0.0014
3818.0,0.0015
3817.0,0.0016
3816.0,0.0016
3815.0,0.0016
3814.0,0.0016
3813.0,0.0015
3812.0,0.0014
3811.0,0.0014
3810.0,0.0013
3809.0,0.0013
3808.0,0.0013
3807.0,0.0012
3806.0,0.0011
3805.0,0.0012
3804.0,0.0013
3803.0,0.0013
3802.0,0.0013
3801.0,0.0013
3800.0,0.0014
3799.0,0.0014
3798.0,0.0015
3797.0,0.0015
3796.0,0.0014
3795.0,0.0015
3794.0,0.0015
3793.0,0.0015
3792.0,0.0015
3791.0,0.0015
3790.0,0.0015
3789.0,0.0015
3788.0,0.0016
3787.0,0.0016
3786.0,0.0017
3785.0,0.0017
3784.0,0.0017
3783.0,0.0017
3782.0,0.0018
3781.0,0.0017
3780.0,0.0015
3779.0,0.0014
3778.0,0.0013
3777.0,0.0014
3776.0,0.0015
3775.0,0.0015
3774.0,0.0015
3773.0,0.0015
3772.0,0.0014
3771.0,0.0013
3770.0,0.0013
3769.0,0.0013
3768.0,0.0013
3767.0,0.0014
3766.0,0.0014
3765.0,0.0014
3764.0,0.0015
3763.0,0.0016
3762.0,0.0016
3761.0,0.0016
3760.0,0.0015
3759.0,0.0015
3758.0,0.0015
3757.0,0.0014
3756.0,0.0014
3755.0,0.0014
3754.0,0.0014
3753.0,0.0013
3752.0,0.0012
3751.0,0.0011
3750.0,0.0012
3749.0,0.0012
3748.0,0.0012
3747.0,0.0014
3746.0,0.0015
3745.0,0.0015
3744.0,0.0016
3743.0,0.0016
3742.0,0.0016
3741.0,0.0015
3740.0,0.0015
3739.0,0.0014
3738.0,0.0015
3737.0,0.0014
3736.0,0.0014
3735.0,0.0015
3734.0,0.0015
3733.0,0.0016
3732.0,0.0016
3731.0,0.0017
3730.0,0.0018
3729.0,0.0019
3728.0,0.002
3727.0,0.002
3726.0,0.0019
3725.0,0.0019
3724.0,0.0019
3723.0,0.0019
3722.0,0.0018
3721.0,0.0017
3720.0,0.0017
3719.0,0.0017
3718.0,0.0017
3717.0,0.0018
3716.0,0.0019
3715.0,0.002
3714.0,0.0021
3713.0,0.0021
3712.0,0.002
3711.0,0.0018
3710.0,0.0017
3709.0,0.0017
3708.0,0.0017
3707.0,0.0017
3706.0,0.0017
3705.0,0.0016
3704.0,0.0016
3703.0,0.0015
3702.0,0.0016
3701.0,0.0018
3700.0,0.0019
3699.0,0.002
3698.0,0.0021
3697.0,0.002
3696.0,0.0019
3695.0,0.0019
3694.0,0.0018
3693.0,0.0019
3692.0,0.0019
3691.0,0.0018
3690.0,0.0018
3689.0,0.0018
3688.0,0.0018
3687.0,0.0019
3686.0,0.002
3685.0,0.0021
3684.0,0.0021
3683.0,0.0021
3682.0,0.0021
3681.0,0.002
3680.0,0.0018
3679.0,0.0018
3678.0,0.0019
3677.0,0.002
3676.0,0.0018
3675.0,0.0017
3674.0,0.0016
3673.0,0.0017
3672.0,0.0019
3671.0,0.0019
3670.0,0.002
3669.0,0.0021
3668.0,0.0022
3667.0,0.0022
3666.0,0.0022
3665.0,0.0021
3664.0,0.0021
3663.0,0.0021
3662.0,0.0021
3661.0,0.0021
3660.0,0.0022
3659.0,0.0023
3658.0,0.0023
3657.0,0.0024
3656.0,0.0024
3655.0,0.0024
3654.0,0.0024
3653.0,0.0024
3652.0,0.0024
3651.0,0.0024
3650.0,0.0026
3649.0,0.0029
3648.0,0.003
3647.0,0.0029
3646.0,0.0028
3645.0,0.0027
3644.0,0.0027
3643.0,0.0027
3642.0,0.0028
3641.0,0.0028
3640.0,0.0028
3639.0,0.0028
3638.0,0.0028
3637.0,0.0029
3636.0,0.003
3635.0,0.003
3634.0,0.003
3633.0,0.003
3632.0,0.003
3631.0,0.0029
3630.0,0.0027
3629.0,0.0027
3628.0,0.0028
3627.0,0.003
3626.0,0.0032
3625.0,0.0034
3624.0,0.0034
3623.0,0.0035
3622.0,0.0035
3621.0,0.0035
3620.0,0.0034
3619.0,0.0033
3618.0,0.0033
3617.0,0.0034
3616.0,0.0034
3615.0,0.0034
3614.0,0.0034
3613.0,0.0034
3612.0,0.0036
3611.0,0.0038
3610.0,0.004
3609.0,0.004
3608.0,0.0041
3607.0,0.004
3606.0,0.004
3605.0,0.0041
3604.0,0.0042
3603.0,0.0043
3602.0,0.0045
3601.0,0.0045
3600.0,0.0044
3599.0,0.0043
3598.0,0.0043
3597.0,0.0043
3596.0,0.0044
3595.0,0.0045
3594.0,0.0046
3593.0,0.0046
3592.0,0.0046
3591.0,0.0047
3590.0,0.0047
3589.0,0.0047
3588.0,0.0047
3587.0,0.0048
3586.0,0.0048
3585.0,0.0049
3584.0,0.0049
3583.0,0.0049
3582.0,0.0049
3581.0,0.0049
3580.0,0.0049
3579.0,0.0049
3578.0,0.0049
3577.0,0.0049
3576.0,0.0049
3575.0,0.005
3574.0,0.0051
3573.0,0.0052
3572.0,0.0054
3571.0,0.0057
3570.0,0.006
3569.0,0.0062
3568.0,0.0063
3567.0,0.0062
3566.0,0.0061
3565.0,0.0059
3564.0,0.0058
3563.0,0.0058
3562.0,0.0058
3561.0,0.0058
3560.0,0.0059
3559.0,0.0059
3558.0,0.0058
3557.0,0.0058
3556.0,0.0057
3555.0,0.0058
3554.0,0.0059
3553.0,0.006
3552.0,0.0061
3551.0,0.0062
3550.0,0.0063
3549.0,0.0063
3548.0,0.0064
3547.0,0.0064
3546.0,0.0064
3545.0,0.0064
3544.0,0.0065
3543.0,0.0065
3542.0,0.0065
3541.0,0.0066
3540.0,0.0066
3539.0,0.0066
3538.0,0.0066
3537.0,0.0066
3536.0,0.0066
3535.0,0.0067
3534.0,0.0068
3533.0,0.0068
3532.0,0.0069
3531.0,0.007
3530.0,0.007
3529.0,0.007
3528.0,0.007
3527.0,0.007
3526.0,0.007
3525.0,0.0071
3524.0,0.0072
3523.0,0.0073
3522.0,0.0074
3521.0,0.0074
3520.0,0.0074
3519.0,0.0073
3518.0,0.0074
3517.0,0.0074
3516.0,0.0075
3515.0,0.0075
3514.0,0.0076
3513.0,0.0076
3512.0,0.0077
3511.0,0.0077
3510.0,0.0077
3509.0,0.0076
3508.0,0.0076
3507.0,0.0076
3506.0,0.0076
3505.0,0.0076
3504.0,0.0077
3503.0,0.0078
3502.0,0.0079
3501.0,0.008
3500.0,0.008
3499.0,0.008
3498.0,0.0079
3497.0,0.0079
3496.0,0.008
3495.0,0.0081
3494.0,0.0083
3493.0,0.0085
3492.0,0.0085
3491.0,0.0084
3490.0,0.0082
3489.0,0.0081
3488.0,0.0081
3487.0,0.0083
3486.0,0.0085
3485.0,0.0087
3484.0,0.0088
3483.0,0.0089
3482.0,0.0089
3481.0,0.0089
3480.0,0.009
3479.0,0.009
3478.0,0.009
3477.0,0.009
3476.0,0.0091
3475.0,0.0092
3474.0,0.0092
3473.0,0.0093
3472.0,0.0093
3471.0,0.0093
3470.0,0.0093
3469.0,0.0094
3468.0,0.0096
3467.0,0.0097
3466.0,0.0098
3465.0,0.0098
3464.0,0.0098
3463.0,0.0099
3462.0,0.0099
3461.0,0.01
3460.0,0.0099
3459.0,0.0099
3458.0,0.0099
3457.0,0.01
3456.0,0.0101
3455.0,0.0102
3454.0,0.0103
3453.0,0.0103
3452.0,0.0104
3451.0,0.0104
3450.0,0.0104
3449.0,0.0105
3448.0,0.0106
3447.0,0.0107
3446.0,0.0107
3445.0,0.0107
3444.0,0.0107
3443.0,0.0107
3442.0,0.0107
3441.0,0.0107
3440.0,0.0108
3439.0,0.0108
3438.0,0.0108
3437.0,0.0109
3436.0,0.011
3435.0,0.0111
3434.0,0.0112
3433.0,0.0113
3432.0,0.0113
3431.0,0.0113
3430.0,0.0113
3429.0,0.0114
3428.0,0.0114
3427.0,0.0115
3426.0,0.0115
3425.0,0.0115
3424.0,0.0114
3423.0,0.0114
3422.0,0.0114
3421.0,0.0114
3420.0,0.0116
3419.0,0.0118
3418.0,0.012
3417.0,0.0121
3416.0,0.0121
3415.0,0.012
3414.0,0.0119
3413.0,0.0119
3412.0,0.0118
3411.0,0.0118
3410.0,0.0118
3409.0,0.0119
3408.0,0.0121
3407.0,0.0123
3406.0,0.0124
3405.0,0.0125
3404.0,0.0124
3403.0,0.0124
3402.0,0.0124
3401.0,0.0125
3400.0,0.0126
3399.0,0.0127
3398.0,0.0128
3397.0,0.0128
3396.0,0.0128
3395.0,0.0128
3394.0,0.0127
3393.0,0.0127
3392.0,0.0127
3391.0,0.0127
3390.0,0.0127
3389.0,0.0127
3388.0,0.0126
3387.0,0.0125
3386.0,0.0125
3385.0,0.0126
3384.0,0.0128
3383.0,0.013
3382.0,0.0131
3381.0,0.0132
3380.0,0.0132
3379.0,0.0132
3378.0,0.0133
3377.0,0.0133
3376.0,0.0133
3375.0,0.0133
3374.0,0.0132
3373.0,0.0132
3372.0,0.0132
3371.0,0.0132
3370.0,0.0132
3369.0,0.0132
3368.0,0.0132
3367.0,0.0131
3366.0,0.0131
3365.0,0.0132
3364.0,0.0133
3363.0,0.0133
3362.0,0.0132
3361.0,0.013
3360.0,0.013
3359.0,0.0131
3358.0,0.0132
3357.0,0.0133
3356.0,0.0133
3355.0,0.0132
3354.0,0.0131
3353.0,0.013
3352.0,0.013
3351.0,0.0131
3350.0,0.0132
3349.0,0.0133
3348.0,0.0133
3347.0,0.0132
3346.0,0.0131
3345.0,0.013
3344.0,0.0129
3343.0,0.0129
3342.0,0.0129
3341.0,0.0129
3340.0,0.0129
3339.0,0.0129
3338.0,0.0128
3337.0,0.0128
3336.0,0.0128
3335.0,0.0128
3334.0,0.0128
3333.0,0.0129
3332.0,0.0129
3331.0,0.0129
3330.0,0.0129
3329.0,0.0129
3328.0,0.013
3327.0,0.013
3326.0,0.013
3325.0,0.0129
3324.0,0.0129
3323.0,0.0129
3322.0,0.0129
3321.0,0.0127
3320.0,0.0126
3319.0,0.0124
3318.0,0.0124
3317.0,0.0124
3316.0,0.0125
3315.0,0.0125
3314.0,0.0124
3313.0,0.0123
3312.0,0.0123
3311.0,0.0124
3310.0,0.0123
3309.0,0.0123
3308.0,0.0122
3307.0,0.0121
3306.0,0.0121
3305.0,0.0122
3304.0,0.0123
3303.0,0.0123
3302.0,0.0122
3301.0,0.0122
3300.0,0.0122
3299.0,0.0122
3298.0,0.0122
3297.0,0.0122
3296.0,0.0121
3295.0,0.0121
3294.0,0.0121
3293.0,0.0121
3292.0,0.0121
3291.0,0.0122
3290.0,0.0121
3289.0,0.012
3288.0,0.0119
3287.0,0.0118
3286.0,0.0118
3285.0,0.0118
3284.0,0.0119
3283.0,0.012
3282.0,0.012
3281.0,0.012
3280.0,0.012
3279.0,0.012
3278.0,0.012
3277.0,0.012
3276.0,0.012
3275.0,0.0119
3274.0,0.0117
3273.0,0.0116
3272.0,0.0116
3271.0,0.0115
3270.0,0.0115
3269.0,0.0115
3268.0,0.0115
3267.0,0.0115
3266.0,0.0116
3265.0,0.0117
3264.0,0.0117
3263.0,0.0117
3262.0,0.0116
3261.0,0.0115
3260.0,0.0115
3259.0,0.0115
3258.0,0.0115
3257.0,0.0115
3256.0,0.0116
3255.0,0.0115
3254.0,0.0115
3253.0,0.0114
3252.0,0.0113
3251.0,0.0113
3250.0,0.0112
3249.0,0.0111
3248.0,0.0111
3247.0,0.011
3246.0,0.011
3245.0,0.0111
3244.0,0.0111
3243.0,0.0112
3242.0,0.0112
3241.0,0.0113
3240.0,0.0113
3239.0,0.0112
3238.0,0.011
3237.0,0.0109
3236.0,0.0108
3235.0,0.0108
3234.0,0.0107
3233.0,0.0106
3232.0,0.0105
3231.0,0.0105
3230.0,0.0105
3229.0,0.0106
3228.0,0.0106
3227.0,0.0107
3226.0,0.0107
3225.0,0.0107
3224.0,0.0107
3223.0,0.0107
3222.0,0.0107
3221.0,0.0107
3220.0,0.0106
3219.0,0.0106
3218.0,0.0105
3217.0,0.0105
3216.0,0.0105
3215.0,0.0104
3214.0,0.0104
3213.0,0.0104
3212.0,0.0104
3211.0,0.0103
3210.0,0.0103
3209.0,0.0103
3208.0,0.0102
3207.0,0.0101
3206.0,0.01
3205.0,0.0099
3204.0,0.0099
3203.0,0.0098
3202.0,0.0098
3201.0,0.0097
3200.0,0.0097
3199.0,0.0097
3198.0,0.0096
3197.0,0.0096
3196.0,0.0097
3195.0,0.0097
3194.0,0.0098
3193.0,0.0097
3192.0,0.0096
3191.0,0.0095
3190.0,0.0094
3189.0,0.0093
3188.0,0.0092
3187.0,0.0092
3186.0,0.0092
3185.0,0.0093
3184.0,0.0094
3183.0,0.0094
3182.0,0.0093
3181.0,0.0091
3180.0,0.009
3179.0,0.0089
3178.0,0.0089
3177.0,0.0088
3176.0,0.0088
3175.0,0.0088
3174.0,0.0087
3173.0,0.0087
3172.0,0.0088
3171.0,0.0088
3170.0,0.0089
3169.0,0.0088
3168.0,0.0088
3167.0,0.0087
3166.0,0.0085
3165.0,0.0084
3164.0,0.0084
3163.0,0.0083
3162.0,0.0083
3161.0,0.0083
3160.0,0.0083
3159.0,0.0082
3158.0,0.0082
3157.0,0.0081
3156.0,0.0081
3155.0,0.008
3154.0,0.0079
3153.0,0.0079
3152.0,0.0079
3151.0,0.008
3150.0,0.0081
3149.0,0.0082
3148.0,0.0083
3147.0,0.0083
3146.0,0.0082
3145.0,0.0081
3144.0,0.008
3143.0,0.008
3142.0,0.0079
3141.0,0.0079
3140.0,0.0078
3139.0,0.0077
3138.0,0.0076
3137.0,0.0074
3136.0,0.0073
3135.0,0.0072
3134.0,0.0072
3133.0,0.0071
3132.0,0.0071
3131.0,0.007
3130.0,0.007
3129.0,0.007
3128.0,0.007
3127.0,0.0071
3126.0,0.0071
3125.0,0.0071
3124.0,0.007
3123.0,0.0069
3122.0,0.0069
3121.0,0.0068
3120.0,0.0068
3119.0,0.0068
3118.0,0.0067
3117.0,0.0067
3116.0,0.0067
3115.0,0.0066
3114.0,0.0066
3113.0,0.0066
3112.0,0.0066
3111.0,0.0067
3110.0,0.0067
3109.0,0.0067
3108.0,0.0066
3107.0,0.0066
3106.0,0.0065
3105.0,0.0065
3104.0,0.0065
3103.0,0.0065
3102.0,0.0065
3101.0,0.0065
3100.0,0.0065
3099.0,0.0064
3098.0,0.0064
3097.0,0.0063
3096.0,0.0063
3095.0,0.0063
3094.0,0.0064
3093.0,0.0064
3092.0,0.0064
3091.0,0.0063
3090.0,0.0062
3089.0,0.0062
3088.0,0.0062
3087.0,0.0062
3086.0,0.0062
3085.0,0.0061
3084.0,0.006
3083.0,0.0061
3082.0,0.0062
3081.0,0.0063
3080.0,0.0064
3079.0,0.0063
3078.0,0.0063
3077.0,0.0062
3076.0,0.0062
3075.0,0.0061
3074.0,0.006
3073.0,0.006
3072.0,0.0059
3071.0,0.0059
3070.0,0.0058
3069.0,0.0058
3068.0,0.0058
3067.0,0.0058
3066.0,0.0058
3065.0,0.0058
3064.0,0.0058
3063.0,0.0057
3062.0,0.0057
3061.0,0.0057
3060.0,0.0057
3059.0,0.0057
3058.0,0.0058
3057.0,0.0057
3056.0,0.0057
3055.0,0.0056
3054.0,0.0056
3053.0,0.0057
3052.0,0.0058
3051.0,0.0058
3050.0,0.0058
3049.0,0.0057
3048.0,0.0057
3047.0,0.0056
3046.0,0.0055
3045.0,0.0054
3044.0,0.0053
3043.0,0.0053
3042.0,0.0052
3041.0,0.0053
3040.0,0.0053
3039.0,0.0053
3038.0,0.0053
3037.0,0.0053
3036.0,0.0053
3035.0,0.0053
3034.0,0.0053
3033.0,0.0054
3032.0,0.0055
3031.0,0.0056
3030.0,0.0057
3029.0,0.0059
3028.0,0.006
3027.0,0.006
3026.0,0.0061
3025.0,0.0061
3024.0,0.0062
3023.0,0.0061
3022.0,0.006
3021.0,0.0059
3020.0,0.0057
3019.0,0.0056
3018.0,0.0056
3017.0,0.0056
3016.0,0.0056
3015.0,0.0055
3014.0,0.0054
3013.0,0.0053
3012.0,0.0052
3011.0,0.0051
3010.0,0.005
3009.0,0.005
3008.0,0.0049
3007.0,0.0049
3006.0,0.0049
3005.0,0.0049
3004.0,0.0049
3003.0,0.0049
3002.0,0.0048
3001.0,0.0047
3000.0,0.0047
2999.0,0.0046
2998.0,0.0046
2997.0,0.0046
2996.0,0.0046
2995.0,0.0046
2994.0,0.0046
2993.0,0.0046
2992.0,0.0045
2991.0,0.0045
2990.0,0.0045
2989.0,0.0044
2988.0,0.0044
2987.0,0.0044
2986.0,0.0044
2985.0,0.0043
2984.0,0.0043
2983.0,0.0043
2982.0,0.0043
2981.0,0.0043
2980.0,0.0043
2979.0,0.0043
2978.0,0.0043
2977.0,0.0043
2976.0,0.0043
2975.0,0.0043
2974.0,0.0043
2973.0,0.0044
2972.0,0.0044
2971.0,0.0044
2970.0,0.0044
2969.0,0.0044
2968.0,0.0044
2967.0,0.0043
2966.0,0.0043
2965.0,0.0043
2964.0,0.0043
2963.0,0.0043
2962.0,0.0043
2961.0,0.0043
2960.0,0.0043
2959.0,0.0043
2958.0,0.0043
2957.0,0.0043
2956.0,0.0043
2955.0,0.0043
2954.0,0.0043
2953.0,0.0042
2952.0,0.0043
2951.0,0.0043
2950.0,0.0044
2949.0,0.0045
2948.0,0.0045
2947.0,0.0045
2946.0,0.0045
2945.0,0.0045
2944.0,0.0046
2943.0,0.0046
2942.0,0.0046
2941.0,0.0046
2940.0,0.0046
2939.0,0.0046
2938.0,0.0048
2937.0,0.005
2936.0,0.0051
2935.0,0.0052
2934.0,0.0053
2933.0,0.0054
2932.0,0.0055
2931.0,0.0056
2930.0,0.0056
2929.0,0.0056
2928.0,0.0057
2927.0,0.0058
2926.0,0.0059
2925.0,0.0061
2924.0,0.0062
2923.0,0.0063
2922.0,0.0063
2921.0,0.0063
2920.0,0.0063
2919.0,0.0063
2918.0,0.0063
2917.0,0.0062
2916.0,0.0061
2915.0,0.006
2914.0,0.006
2913.0,0.0059
2912.0,0.0058
2911.0,0.0058
2910.0,0.0057
2909.0,0.0057
2908.0,0.0057
2907.0,0.0057
2906.0,0.0057
2905.0,0.0056
2904.0,0.0055
2903.0,0.0054
2902.0,0.0052
2901.0,0.0052
2900.0,0.0051
2899.0,0.0051
2898.0,0.005
2897.0,0.005
2896.0,0.005
2895.0,0.005
2894.0,0.005
2893.0,0.005
2892.0,0.0049
2891.0,0.0048
2890.0,0.0047
2889.0,0.0047
2888.0,0.0047
2887.0,0.0047
2886.0,0.0048
2885.0,0.0048
2884.0,0.0048
2883.0,0.0048
2882.0,0.0047
2881.0,0.0047
2880.0,0.0047
2879.0,0.0047
2878.0,0.0046
2877.0,0.0045
2876.0,0.0045
2875.0,0.0045
2874.0,0.0044
2873.0,0.0044
2872.0,0.0044
2871.0,0.0044
2870.0,0.0045
2869.0,0.0044
2868.0,0.0044
2867.0,0.0043
2866.0,0.0044
2865.0,0.0044
2864.0,0.0045
2863.0,0.0045
2862.0,0.0044
2861.0,0.0044
2860.0,0.0044
2859.0,0.0045
2858.0,0.0046
2857.0,0.0047
2856.0,0.0048
2855.0,0.0049
2854.0,0.0049
2853.0,0.005
2852.0,0.0051
2851.0,0.0051
2850.0,0.0051
2849.0,0.005
2848.0,0.005
2847.0,0.0049
2846.0,0.0049
2845.0,0.0049
2844.0,0.0048
2843.0,0.0048
2842.0,0.0047
2841.0,0.0046
2840.0,0.0046
2839.0,0.0045
2838.0,0.0044
2837.0,0.0043
2836.0,0.0043
2835.0,0.0042
2834.0,0.0043
2833.0,0.0043
2832.0,0.0044
2831.0,0.0044
2830.0,0.0044
2829.0,0.0043
2828.0,0.0043
2827.0,0.0043
2826.0,0.0043
2825.0,0.0043
2824.0,0.0043
2823.0,0.0043
2822.0,0.0043
2821.0,0.0042
2820.0,0.0042
2819.0,0.0042
2818.0,0.0042
2817.0,0.0042
2816.0,0.0042
2815.0,0.0041
2814.0,0.0041
2813.0,0.0041
2812.0,0.0041
2811.0,0.0042
2810.0,0.0042
2809.0,0.0042
2808.0,0.0041
2807.0,0.0041
2806.0,0.004
2805.0,0.0041
2804.0,0.0041
2803.0,0.0041
2802.0,0.0041
2801.0,0.004
2800.0,0.004
2799.0,0.004
2798.0,0.004
2797.0,0.004
2796.0,0.004
2795.0,0.004
2794.0,0.004
2793.0,0.004
2792.0,0.004
2791.0,0.004
2790.0,0.0039
2789.0,0.0039
2788.0,0.0039
2787.0,0.0039
2786.0,0.004
2785.0,0.004
2784.0,0.0041
2783.0,0.0041
2782.0,0.0041
2781.0,0.0041
2780.0,0.0041
2779.0,0.004
2778.0,0.0039
2777.0,0.0038
2776.0,0.0038
2775.0,0.0039
2774.0,0.0039
2773.0,0.004
2772.0,0.004
2771.0,0.0041
2770.0,0.0041
2769.0,0.004
2768.0,0.004
2767.0,0.004
2766.0,0.0041
2765.0,0.0041
2764.0,0.004
2763.0,0.004
2762.0,0.004
2761.0,0.004
2760.0,0.004
2759.0,0.0039
2758.0,0.0039
2757.0,0.0039
2756.0,0.004
2755.0,0.004
2754.0,0.0041
2753.0,0.0041
2752.0,0.004
2751.0,0.004
2750.0,0.0039
2749.0,0.0039
2748.0,0.0039
2747.0,0.0039
2746.0,0.004
2745.0,0.004
2744.0,0.004
2743.0,0.004
2742.0,0.0039
2741.0,0.0039
2740.0,0.0039
2739.0,0.0039
2738.0,0.004
2737.0,0.004
2736.0,0.0041
2735.0,0.0041
2734.0,0.004
2733.0,0.004
2732.0,0.0039
2731.0,0.0039
2730.0,0.0039
2729.0,0.0039
2728.0,0.0039
2727.0,0.0039
2726.0,0.004
2725.0,0.0041
2724.0,0.0041
2723.0,0.0041
2722.0,0.004
2721.0,0.004
2720.0,0.004
2719.0,0.004
2718.0,0.004
2717.0,0.0039
2716.0,0.0039
2715.0,0.0039
2714.0,0.0039
2713.0,0.0039
2712.0,0.0039
2711.0,0.0039
2710.0,0.0039
2709.0,0.0039
2708.0,0.0039
2707.0,0.0039
2706.0,0.0039
2705.0,0.0039
2704.0,0.0039
2703.0,0.004
2702.0,0.004
2701.0,0.004
2700.0,0.004
2699.0,0.004
2698.0,0.004
2697.0,0.004
2696.0,0.0039
2695.0,0.0039
2694.0,0.0038
2693.0,0.0038
2692.0,0.0039
2691.0,0.0039
2690.0,0.004
2689.0,0.004
2688.0,0.0039
2687.0,0.004
2686.0,0.004
2685.0,0.004
2684.0,0.004
2683.0,0.0039
2682.0,0.0038
2681.0,0.0038
2680.0,0.0038
2679.0,0.0039
2678.0,0.0039
2677.0,0.0039
2676.0,0.0038
2675.0,0.0038
2674.0,0.0038
2673.0,0.0039
2672.0,0.0039
2671.0,0.0039
2670.0,0.0039
2669.0,0.0038
2668.0,0.0038
2667.0,0.0039
2666.0,0.004
2665.0,0.004
2664.0,0.004
2663.0,0.004
2662.0,0.0039
2661.0,0.0039
2660.0,0.0038
2659.0,0.0038
2658.0,0.0038
2657.0,0.0038
2656.0,0.0039
2655.0,0.0039
2654.0,0.0039
2653.0,0.0039
2652.0,0.0039
2651.0,0.0039
2650.0,0.0039
2649.0,0.0039
2648.0,0.004
2647.0,0.0039
2646.0,0.0039
2645.0,0.0038
2644.0,0.0038
2643.0,0.0038
2642.0,0.0039
2641.0,0.0039
2640.0,0.0039
2639.0,0.004
2638.0,0.004
2637.0,0.004
2636.0,0.004
2635.0,0.004
2634.0,0.004
2633.0,0.004
2632.0,0.004
2631.0,0.004
2630.0,0.004
2629.0,0.004
2628.0,0.0039
2627.0,0.0039
2626.0,0.0039
2625.0,0.0039
2624.0,0.0039
2623.0,0.004
2622.0,0.004
2621.0,0.0039
2620.0,0.0039
2619.0,0.0039
2618.0,0.0038
2617.0,0.0038
2616.0,0.0038
2615.0,0.0038
2614.0,0.0039
2613.0,0.0038
2612.0,0.0038
2611.0,0.0039
2610.0,0.0039
2609.0,0.004
2608.0,0.004
2607.0,0.0039
2606.0,0.0039
2605.0,0.0038
2604.0,0.0038
2603.0,0.0039
2602.0,0.0039
2601.0,0.004
2600.0,0.0041
2599.0,0.0041
2598.0,0.004
2597.0,0.004
2596.0,0.004
2595.0,0.004
2594.0,0.004
2593.0,0.004
2592.0,0.004
2591.0,0.004
2590.0,0.004
2589.0,0.004
2588.0,0.004
2587.0,0.0041
2586.0,0.0041
2585.0,0.0041
2584.0,0.0041
2583.0,0.0041
2582.0,0.0041
2581.0,0.0041
2580.0,0.0041
2579.0,0.0041
2578.0,0.004
2577.0,0.004
2576.0,0.004
2575.0,0.004
2574.0,0.004
2573.0,0.004
2572.0,0.0041
2571.0,0.004
2570.0,0.004
2569.0,0.0041
2568.0,0.0041
2567.0,0.0042
2566.0,0.0042
2565.0,0.0042
2564.0,0.0041
2563.0,0.004
2562.0,0.004
2561.0,0.004
2560.0,0.004
2559.0,0.004
