cm-1,A
4000.0,-0.0036
3999.0,-0.0036
3998.0,-0.0036
3997.0,-0.0037
3996.0,-0.0038
3995.0,-0.0039
3994.0,-0.0039
3993.0,-0.0038
3992.0,-0.0038
3991.0,-0.0038
3990.0,-0.0038
3989.0,-0.0038
3988.0,-0.0037
3987.0,-0.0038
3986.0,-0.0038
3985.0,-0.0038
3984.0,-0.0039
3983.0,-0.004
3982.0,-0.004
3981.0,-0.0041
3980.0,-0.0041
3979.0,-0.004
3978.0,-0.004
3977.0,-0.0039
3976.0,-0.0039
3975.0,-0.0038
3974.0,-0.0038
3973.0,-0.0038
3972.0,-0.0039
3971.0,-0.004
3970.0,-0.004
3969.0,-0.004
3968.0,-0.0039
3967.0,-0.0039
3966.0,-0.0039
3965.0,-0.0038
3964.0,-0.0038
3963.0,-0.0038
3962.0,-0.0038
3961.0,-0.0039
3960.0,-0.0039
3959.0,-0.0039
3958.0,-0.0039
3957.0,-0.0038
3956.0,-0.0038
3955.0,-0.0037
3954.0,-0.0038
3953.0,-0.0038
3952.0,-0.0039
3951.0,-0.0039
3950.0,-0.0039
3949.0,-0.0039
3948.0,-0.0039
3947.0,-0.004
3946.0,-0.004
3945.0,-0.004
3944.0,-0.0041
3943.0,-0.0042
3942.0,-0.0043
3941.0,-0.0043
3940.0,-0.0042
3939.0,-0.0041
3938.0,-0.004
3937.0,-0.0039
3936.0,-0.0039
3935.0,-0.0038
3934.0,-0.0039
3933.0,-0.0039
3932.0,-0.004
3931.0,-0.004
3930.0,-0.004
3929.0,-0.004
3928.0,-0.004
3927.0,-0.004
3926.0,-0.004
3925.0,-0.004
3924.0,-0.004
3923.0,-0.004
3922.0,-0.004
3921.0,-0.0039
3920.0,-0.0039
3919.0,-0.0038
3918.0,-0.0038
3917.0,-0.0038
3916.0,-0.0037
3915.0,-0.0037
3914.0,-0.0037
3913.0,-0.0037
3912.0,-0.0037
3911.0,-0.0037
3910.0,-0.0037
3909.0,-0.0038
3908.0,-0.0039
3907.0,-0.0041
3906.0,-0.0042
3905.0,-0.0042
3904.0,-0.0042
3903.0,-0.0042
3902.0,-0.0042
3901.0,-0.0042
3900.0,-0.0042
3899.0,-0.0042
3898.0,-0.0041
3897.0,-0.004
3896.0,-0.0039
3895.0,-0.0038
3894.0,-0.0037
3893.0,-0.0036
3892.0,-0.0036
3891.0,-0.0037
3890.0,-0.0037
3889.0,-0.0038
3888.0,-0.0038
3887.0,-0.0038
3886.0,-0.0039
3885.0,-0.004
3884.0,-0.004
3883.0,-0.004
3882.0,-0.0039
3881.0,-0.0039
3880.0,-0.0039
3879.0,-0.0039
3878.0,-0.004
3877.0,-0.004
3876.0,-0.004
3875.0,-0.004
3874.0,-0.004
3873.0,-0.0039
3872.0,-0.0039
3871.0,-0.0038
3870.0,-0.0037
3869.0,-0.0037
3868.0,-0.0037
3867.0,-0.0037
3866.0,-0.0037
3865.0,-0.0037
3864.0,-0.0037
3863.0,-0.0037
3862.0,-0.0037
3861.0,-0.0037
3860.0,-0.0037
3859.0,-0.0037
3858.0,-0.0038
3857.0,-0.004
3856.0,-0.0042
3855.0,-0.0043
3854.0,-0.0042
3853.0,-0.0041
3852.0,-0.0039
3851.0,-0.0038
3850.0,-0.0037
3849.0,-0.0036
3848.0,-0.0036
3847.0,-0.0036
3846.0,-0.0037
3845.0,-0.0037
3844.0,-0.0037
3843.0,-0.0038
3842.0,-0.0038
3841.0,-0.0038
3840.0,-0.0037
3839.0,-0.0036
3838.0,-0.0035
3837.0,-0.0035
3836.0,-0.0035
3835.0,-0.0035
3834.0,-0.0035
3833.0,-0.0035
3832.0,-0.0034
3831.0,-0.0035
3830.0,-0.0035
3829.0,-0.0035
3828.0,-0.0035
3827.0,-0.0036
3826.0,-0.0036
3825.0,-0.0037
3824.0,-0.0037
3823.0,-0.0037
3822.0,-0.0036
3821.0,-0.0037
3820.0,-0.0039
3819.0,-0.0039
3818.0,-0.0039
3817.0,-0.0038
3816.0,-0.0037
3815.0,-0.0037
3814.0,-0.0037
3813.0,-0.0037
3812.0,-0.0037
3811.0,-0.0038
3810.0,-0.0039
3809.0,-0.0039
3808.0,-0.0038
3807.0,-0.0038
3806.0,-0.0037
3805.0,-0.0037
3804.0,-0.0037
3803.0,-0.0036
3802.0,-0.0036
3801.0,-0.0036
3800.0,-0.0037
3799.0,-0.0037
3798.0,-0.0037
3797.0,-0.0036
3796.0,-0.0036
3795.0,-0.0036
3794.0,-0.0035
3793.0,-0.0034
3792.0,-0.0034
3791.0,-0.0034
3790.0,-0.0035
3789.0,-0.0036
3788.0,-0.0037
3787.0,-0.0037
3786.0,-0.0037
3785.0,-0.0036
3784.0,-0.0036
3783.0,-0.0036
3782.0,-0.0036
3781.0,-0.0035
3780.0,-0.0035
3779.0,-0.0035
3778.0,-0.0035
3777.0,-0.0035
3776.0,-0.0035
3775.0,-0.0034
3774.0,-0.0035
3773.0,-0.0035
3772.0,-0.0036
3771.0,-0.0036
3770.0,-0.0036
3769.0,-0.0035
3768.0,-0.0034
3767.0,-0.0033
3766.0,-0.0033
3765.0,-0.0033
3764.0,-0.0034
3763.0,-0.0035
3762.0,-0.0035
3761.0,-0.0035
3760.0,-0.0035
3759.0,-0.0035
3758.0,-0.0035
3757.0,-0.0035
3756.0,-0.0036
3755.0,-0.0036
3754.0,-0.0036
3753.0,-0.0036
3752.0,-0.0037
3751.0,-0.0038
3750.0,-0.0039
3749.0,-0.0039
3748.0,-0.0039
3747.0,-0.0039
3746.0,-0.0038
3745.0,-0.0037
3744.0,-0.0037
3743.0,-0.0037
3742.0,-0.0036
3741.0,-0.0036
3740.0,-0.0035
3739.0,-0.0035
3738.0,-0.0035
3737.0,-0.0035
3736.0,-0.0035
3735.0,-0.0035
3734.0,-0.0036
3733.0,-0.0036
3732.0,-0.0036
3731.0,-0.0036
3730.0,-0.0036
3729.0,-0.0037
3728.0,-0.0037
3727.0,-0.0037
3726.0,-0.0037
3725.0,-0.0038
3724.0,-0.0039
3723.0,-0.004
3722.0,-0.004
3721.0,-0.004
3720.0,-0.0038
3719.0,-0.0037
3718.0,-0.0036
3717.0,-0.0035
3716.0,-0.0036
3715.0,-0.0036
3714.0,-0.0036
3713.0,-0.0035
3712.0,-0.0032
3711.0,-0.003
3710.0,-0.0031
3709.0,-0.0032
3708.0,-0.0034
3707.0,-0.0036
3706.0,-0.0037
3705.0,-0.0038
3704.0,-0.0038
3703.0,-0.0038
3702.0,-0.0037
3701.0,-0.0037
3700.0,-0.0036
3699.0,-0.0034
3698.0,-0.0033
3697.0,-0.0033
3696.0,-0.0034
3695.0,-0.0034
3694.0,-0.0035
3693.0,-0.0035
3692.0,-0.0036
3691.0,-0.0036
3690.0,-0.0037
3689.0,-0.0037
3688.0,-0.0036
3687.0,-0.0035
3686.0,-0.0033
3685.0,-0.0031
3684.0,-0.003
3683.0,-0.0029
3682.0,-0.0029
3681.0,-0.0029
3680.0,-0.0029
3679.0,-0.0029
3678.0,-0.0029
3677.0,-0.0029
3676.0,-0.0028
3675.0,-0.0028
3674.0,-0.0029
3673.0,-0.0029
3672.0,-0.0029
3671.0,-0.0028
3670.0,-0.0027
3669.0,-0.0026
3668.0,-0.0026
3667.0,-0.0025
3666.0,-0.0024
3665.0,-0.0023
3664.0,-0.0022
3663.0,-0.0022
3662.0,-0.0022
3661.0,-0.0022
3660.0,-0.0022
3659.0,-0.0021
3658.0,-0.0021
3657.0,-0.002
3656.0,-0.0019
3655.0,-0.0019
3654.0,-0.002
3653.0,-0.0021
3652.0,-0.0022
3651.0,-0.0023
3650.0,-0.0022
3649.0,-0.002
3648.0,-0.002
3647.0,-0.002
3646.0,-0.002
3645.0,-0.002
3644.0,-0.002
3643.0,-0.0021
3642.0,-0.0021
3641.0,-0.002
3640.0,-0.002
3639.0,-0.002
3638.0,-0.0019
3637.0,-0.0019
3636.0,-0.0019
3635.0,-0.002
3634.0,-0.002
3633.0,-0.0022
3632.0,-0.0023
3631.0,-0.0024
3630.0,-0.0025
3629.0,-0.0026
3628.0,-0.0027
3627.0,-0.0028
3626.0,-0.0028
3625.0,-0.0027
3624.0,-0.0026
3623.0,-0.0026
3622.0,-0.0026
3621.0,-0.0026
3620.0,-0.0026
3619.0,-0.0026
3618.0,-0.0027
3617.0,-0.0027
3616.0,-0.0026
3615.0,-0.0025
3614.0,-0.0023
3613.0,-0.0022
3612.0,-0.0021
3611.0,-0.0021
3610.0,-0.0021
3609.0,-0.0021
3608.0,-0.002
3607.0,-0.002
3606.0,-0.0021
3605.0,-0.0021
3604.0,-0.002
3603.0,-0.002
3602.0,-0.0019
3601.0,-0.002
3600.0,-0.002
3599.0,-0.0021
3598.0,-0.0022
3597.0,-0.0022
3596.0,-0.0022
3595.0,-0.0022
3594.0,-0.0022
3593.0,-0.0022
3592.0,-0.0022
3591.0,-0.0022
3590.0,-0.0022
3589.0,-0.0021
3588.0,-0.0019
3587.0,-0.0019
3586.0,-0.0019
3585.0,-0.0019
3584.0,-0.0018
3583.0,-0.0016
3582.0,-0.0015
3581.0,-0.0015
3580.0,-0.0015
3579.0,-0.0015
3578.0,-0.0015
3577.0,-0.0015
3576.0,-0.0014
3575.0,-0.0014
3574.0,-0.0014
3573.0,-0.0014
3572.0,-0.0013
3571.0,-0.0013
3570.0,-0.0013
3569.0,-0.0012
3568.0,-0.0011
3567.0,-0.001
3566.0,-0.001
3565.0,-0.001
3564.0,-0.001
3563.0,-0.001
3562.0,-0.001
3561.0,-0.001
3560.0,-0.001
3559.0,-0.0009
3558.0,-0.001
3557.0,-0.001
3556.0,-0.0011
3555.0,-0.0011
3554.0,-0.001
3553.0,-0.0009
3552.0,-0.0008
3551.0,-0.0008
3550.0,-0.001
3549.0,-0.0011
3548.0,-0.0011
3547.0,-0.0011
3546.0,-0.001
3545.0,-0.0009
3544.0,-0.0008
3543.0,-0.0007
3542.0,-0.0006
3541.0,-0.0006
3540.0,-0.0005
3539.0,-0.0005
3538.0,-0.0004
3537.0,-0.0004
3536.0,-0.0004
3535.0,-0.0003
3534.0,-0.0002
3533.0,-0.0001
3532.0,-0.0001
3531.0,-0.0001
3530.0,-0.0002
3529.0,-0.0002
3528.0,-0.0002
3527.0,-0.0001
3526.0,-0.0
3525.0,-0.0
3524.0,0.0
3523.0,0.0001
3522.0,0.0001
3521.0,0.0002
3520.0,0.0003
3519.0,0.0003
3518.0,0.0003
3517.0,0.0004
3516.0,0.0004
3515.0,0.0004
3514.0,0.0005
3513.0,0.0005
3512.0,0.0007
3511.0,0.0008
3510.0,0.001
3509.0,0.0012
3508.0,0.0012
3507.0,0.0013
3506.0,0.0013
3505.0,0.0013
3504.0,0.0012
3503.0,0.0011
3502.0,0.0011
3501.0,0.001
3500.0,0.0011
3499.0,0.0011
3498.0,0.0012
3497.0,0.0011
3496.0,0.0011
3495.0,0.001
3494.0,0.0009
3493.0,0.0008
3492.0,0.0008
3491.0,0.0008
3490.0,0.0008
3489.0,0.0008
3488.0,0.0007
3487.0,0.0006
3486.0,0.0005
3485.0,0.0005
3484.0,0.0005
3483.0,0.0005
3482.0,0.0004
3481.0,0.0004
3480.0,0.0004
3479.0,0.0004
3478.0,0.0004
3477.0,0.0004
3476.0,0.0005
3475.0,0.0005
3474.0,0.0004
3473.0,0.0003
3472.0,0.0003
3471.0,0.0002
3470.0,0.0002
3469.0,0.0002
3468.0,0.0002
3467.0,0.0002
3466.0,0.0003
3465.0,0.0003
3464.0,0.0004
3463.0,0.0003
3462.0,0.0003
3461.0,0.0003
3460.0,0.0002
3459.0,0.0002
3458.0,0.0002
3457.0,0.0002
3456.0,0.0002
3455.0,0.0002
3454.0,0.0002
3453.0,0.0002
3452.0,0.0002
3451.0,0.0002
3450.0,0.0002
3449.0,0.0002
3448.0,0.0003
3447.0,0.0004
3446.0,0.0004
3445.0,0.0004
3444.0,0.0003
3443.0,0.0002
3442.0,0.0002
3441.0,0.0002
3440.0,0.0001
3439.0,0.0001
3438.0,0.0002
3437.0,0.0003
3436.0,0.0003
3435.0,0.0003
3434.0,0.0002
3433.0,0.0002
3432.0,0.0002
3431.0,0.0002
3430.0,0.0002
3429.0,0.0003
3428.0,0.0003
3427.0,0.0004
3426.0,0.0004
3425.0,0.0005
3424.0,0.0005
3423.0,0.0005
3422.0,0.0005
3421.0,0.0005
3420.0,0.0005
3419.0,0.0005
3418.0,0.0006
3417.0,0.0005
3416.0,0.0005
3415.0,0.0004
3414.0,0.0004
3413.0,0.0005
3412.0,0.0005
3411.0,0.0006
3410.0,0.0007
3409.0,0.0006
3408.0,0.0005
3407.0,0.0004
3406.0,0.0004
3405.0,0.0004
3404.0,0.0004
3403.0,0.0004
3402.0,0.0003
3401.0,0.0003
3400.0,0.0002
3399.0,0.0002
3398.0,0.0003
3397.0,0.0003
3396.0,0.0003
3395.0,0.0003
3394.0,0.0004
3393.0,0.0004
3392.0,0.0004
3391.0,0.0004
3390.0,0.0004
3389.0,0.0005
3388.0,0.0005
3387.0,0.0006
3386.0,0.0006
3385.0,0.0006
3384.0,0.0006
3383.0,0.0005
3382.0,0.0005
3381.0,0.0005
3380.0,0.0004
3379.0,0.0004
3378.0,0.0004
3377.0,0.0004
3376.0,0.0004
3375.0,0.0004
3374.0,0.0004
3373.0,0.0005
3372.0,0.0005
3371.0,0.0005
3370.0,0.0005
3369.0,0.0005
3368.0,0.0005
3367.0,0.0005
3366.0,0.0005
3365.0,0.0005
3364.0,0.0005
3363.0,0.0005
3362.0,0.0005
3361.0,0.0005
3360.0,0.0005
3359.0,0.0005
3358.0,0.0005
3357.0,0.0006
3356.0,0.0006
3355.0,0.0005
3354.0,0.0004
3353.0,0.0004
3352.0,0.0003
3351.0,0.0003
3350.0,0.0003
3349.0,0.0003
3348.0,0.0003
3347.0,0.0003
3346.0,0.0002
3345.0,0.0002
3344.0,0.0001
3343.0,0.0002
3342.0,0.0002
3341.0,0.0003
3340.0,0.0003
3339.0,0.0004
3338.0,0.0003
3337.0,0.0003
3336.0,0.0003
3335.0,0.0003
3334.0,0.0004
3333.0,0.0004
3332.0,0.0005
3331.0,0.0005
3330.0,0.0004
3329.0,0.0002
3328.0,0.0001
3327.0,0.0
3326.0,0.0
3325.0,0.0001
3324.0,0.0002
3323.0,0.0004
3322.0,0.0005
3321.0,0.0006
3320.0,0.0006
3319.0,0.0005
3318.0,0.0003
3317.0,0.0002
3316.0,0.0002
3315.0,0.0001
3314.0,0.0002
3313.0,0.0002
3312.0,0.0002
3311.0,0.0002
3310.0,0.0002
3309.0,0.0002
3308.0,0.0003
3307.0,0.0003
3306.0,0.0002
3305.0,0.0001
3304.0,0.0001
3303.0,0.0001
3302.0,0.0002
3301.0,0.0002
3300.0,0.0002
3299.0,0.0003
3298.0,0.0002
3297.0,0.0002
3296.0,0.0001
3295.0,0.0001
3294.0,0.0001
3293.0,0.0
3292.0,0.0
3291.0,-0.0
3290.0,-0.0
3289.0,0.0001
3288.0,0.0002
3287.0,0.0002
3286.0,0.0002
3285.0,0.0002
3284.0,0.0001
3283.0,0.0001
3282.0,0.0001
3281.0,0.0001
3280.0,0.0002
3279.0,0.0002
3278.0,0.0002
3277.0,0.0002
3276.0,0.0002
3275.0,0.0002
3274.0,0.0002
3273.0,0.0001
3272.0,-0.0
3271.0,-0.0001
3270.0,-0.0001
3269.0,-0.0001
3268.0,-0.0001
3267.0,-0.0001
3266.0,-0.0001
3265.0,-0.0001
3264.0,-0.0001
3263.0,-0.0001
3262.0,-0.0001
3261.0,-0.0001
3260.0,-0.0001
3259.0,-0.0001
3258.0,-0.0001
3257.0,-0.0001
3256.0,-0.0001
3255.0,-0.0001
3254.0,-0.0001
3253.0,-0.0001
3252.0,-0.0001
3251.0,-0.0002
3250.0,-0.0002
3249.0,-0.0003
3248.0,-0.0003
3247.0,-0.0003
3246.0,-0.0003
3245.0,-0.0002
3244.0,-0.0001
3243.0,-0.0001
3242.0,-0.0001
3241.0,-0.0002
3240.0,-0.0002
3239.0,-0.0002
3238.0,-0.0002
3237.0,-0.0002
3236.0,-0.0003
3235.0,-0.0003
3234.0,-0.0003
3233.0,-0.0003
3232.0,-0.0003
3231.0,-0.0003
3230.0,-0.0003
3229.0,-0.0003
3228.0,-0.0002
3227.0,-0.0001
3226.0,-0.0001
3225.0,-0.0001
3224.0,-0.0002
3223.0,-0.0003
3222.0,-0.0004
3221.0,-0.0004
3220.0,-0.0005
3219.0,-0.0004
3218.0,-0.0004
3217.0,-0.0003
3216.0,-0.0002
3215.0,-0.0002
3214.0,-0.0002
3213.0,-0.0003
3212.0,-0.0004
3211.0,-0.0004
3210.0,-0.0005
3209.0,-0.0004
3208.0,-0.0004
3207.0,-0.0003
3206.0,-0.0003
3205.0,-0.0003
3204.0,-0.0003
3203.0,-0.0003
3202.0,-0.0004
3201.0,-0.0005
3200.0,-0.0005
3199.0,-0.0006
3198.0,-0.0006
3197.0,-0.0006
3196.0,-0.0007
3195.0,-0.0007
3194.0,-0.0007
3193.0,-0.0008
3192.0,-0.0009
3191.0,-0.0009
3190.0,-0.0009
3189.0,-0.0009
3188.0,-0.0009
3187.0,-0.0009
3186.0,-0.0009
3185.0,-0.0009
3184.0,-0.0009
3183.0,-0.0008
3182.0,-0.0008
3181.0,-0.0008
3180.0,-0.0008
3179.0,-0.0008
3178.0,-0.0009
3177.0,-0.0009
3176.0,-0.0009
3175.0,-0.0009
3174.0,-0.0008
3173.0,-0.0008
3172.0,-0.0007
3171.0,-0.0007
3170.0,-0.0007
3169.0,-0.0007
3168.0,-0.0008
3167.0,-0.0009
3166.0,-0.001
3165.0,-0.0011
3164.0,-0.0011
3163.0,-0.0011
3162.0,-0.0011
3161.0,-0.001
3160.0,-0.001
3159.0,-0.001
3158.0,-0.001
3157.0,-0.001
3156.0,-0.0011
3155.0,-0.0012
3154.0,-0.0012
3153.0,-0.0012
3152.0,-0.0011
3151.0,-0.0011
3150.0,-0.001
3149.0,-0.001
3148.0,-0.001
3147.0,-0.0011
3146.0,-0.0012
3145.0,-0.0013
3144.0,-0.0013
3143.0,-0.0013
3142.0,-0.0014
3141.0,-0.0014
3140.0,-0.0013
3139.0,-0.0013
3138.0,-0.0012
3137.0,-0.0011
3136.0,-0.0011
3135.0,-0.001
3134.0,-0.001
3133.0,-0.0011
3132.0,-0.0012
3131.0,-0.0013
3130.0,-0.0013
3129.0,-0.0014
3128.0,-0.0013
3127.0,-0.0013
3126.0,-0.0013
3125.0,-0.0012
3124.0,-0.0012
3123.0,-0.0012
3122.0,-0.0012
3121.0,-0.0013
3120.0,-0.0014
3119.0,-0.0014
3118.0,-0.0014
3117.0,-0.0014
3116.0,-0.0014
3115.0,-0.0014
3114.0,-0.0014
3113.0,-0.0014
3112.0,-0.0014
3111.0,-0.0015
3110.0,-0.0015
3109.0,-0.0016
3108.0,-0.0016
3107.0,-0.0016
3106.0,-0.0016
3105.0,-0.0016
3104.0,-0.0016
3103.0,-0.0016
3102.0,-0.0016
3101.0,-0.0015
3100.0,-0.0015
3099.0,-0.0015
3098.0,-0.0014
3097.0,-0.0014
3096.0,-0.0014
3095.0,-0.0014
3094.0,-0.0015
3093.0,-0.0015
3092.0,-0.0015
3091.0,-0.0015
3090.0,-0.0015
3089.0,-0.0015
3088.0,-0.0014
3087.0,-0.0014
3086.0,-0.0014
3085.0,-0.0015
3084.0,-0.0015
3083.0,-0.0015
3082.0,-0.0016
3081.0,-0.0016
3080.0,-0.0016
3079.0,-0.0016
3078.0,-0.0016
3077.0,-0.0016
3076.0,-0.0015
3075.0,-0.0015
3074.0,-0.0014
3073.0,-0.0014
3072.0,-0.0014
3071.0,-0.0014
3070.0,-0.0015
3069.0,-0.0016
3068.0,-0.0016
3067.0,-0.0016
3066.0,-0.0016
3065.0,-0.0016
3064.0,-0.0016
3063.0,-0.0016
3062.0,-0.0016
3061.0,-0.0017
3060.0,-0.0016
3059.0,-0.0016
3058.0,-0.0015
3057.0,-0.0015
3056.0,-0.0015
3055.0,-0.0016
3054.0,-0.0016
3053.0,-0.0016
3052.0,-0.0015
3051.0,-0.0015
3050.0,-0.0016
3049.0,-0.0016
3048.0,-0.0017
3047.0,-0.0016
3046.0,-0.0016
3045.0,-0.0016
3044.0,-0.0015
3043.0,-0.0015
3042.0,-0.0015
3041.0,-0.0014
3040.0,-0.0014
3039.0,-0.0014
3038.0,-0.0014
3037.0,-0.0015
3036.0,-0.0016
3035.0,-0.0016
3034.0,-0.0016
3033.0,-0.0015
3032.0,-0.0014
3031.0,-0.0014
3030.0,-0.0012
3029.0,-0.0011
3028.0,-0.001
3027.0,-0.0008
3026.0,-0.0006
3025.0,-0.0005
3024.0,-0.0003
3023.0,-0.0001
3022.0,0.0001
3021.0,0.0003
3020.0,0.0006
3019.0,0.0009
3018.0,0.0013
3017.0,0.0017
3016.0,0.0021
3015.0,0.0025
3014.0,0.0029
3013.0,0.0035
3012.0,0.004
3011.0,0.0046
3010.0,0.0052
3009.0,0.0058
3008.0,0.0065
3007.0,0.0072
3006.0,0.0079
3005.0,0.0087
3004.0,0.0094
3003.0,0.0101
3002.0,0.0108
3001.0,0.0114
3000.0,0.0119
2999.0,0.0124
2998.0,0.0129
2997.0,0.0132
2996.0,0.0133
2995.0,0.0133
2994.0,0.0129
2993.0,0.0124
2992.0,0.0118
2991.0,0.0111
2990.0,0.0104
2989.0,0.0097
2988.0,0.009
2987.0,0.0084
2986.0,0.0078
2985.0,0.0073
2984.0,0.0069
2983.0,0.0065
2982.0,0.0062
2981.0,0.006
2980.0,0.0058
2979.0,0.0057
2978.0,0.0057
2977.0,0.0056
2976.0,0.0056
2975.0,0.0057
2974.0,0.0058
2973.0,0.0059
2972.0,0.0061
2971.0,0.0063
2970.0,0.0065
2969.0,0.0068
2968.0,0.0071
2967.0,0.0074
2966.0,0.0078
2965.0,0.0082
2964.0,0.0085
2963.0,0.0089
2962.0,0.0092
2961.0,0.0095
2960.0,0.0099
2959.0,0.0102
2958.0,0.0105
2957.0,0.0109
2956.0,0.0113
2955.0,0.0117
2954.0,0.0121
2953.0,0.0125
2952.0,0.0129
2951.0,0.0134
2950.0,0.0138
2949.0,0.0142
2948.0,0.0146
2947.0,0.015
2946.0,0.0153
2945.0,0.0156
2944.0,0.0157
2943.0,0.0158
2942.0,0.0157
2941.0,0.0156
2940.0,0.0154
2939.0,0.0153
2938.0,0.0153
2937.0,0.0154
2936.0,0.0155
2935.0,0.0157
2934.0,0.0159
2933.0,0.0161
2932.0,0.0164
2931.0,0.0166
2930.0,0.0169
2929.0,0.0172
2928.0,0.0173
2927.0,0.0174
2926.0,0.0174
2925.0,0.0173
2924.0,0.0171
2923.0,0.0168
2922.0,0.0162
2921.0,0.0156
2920.0,0.0149
2919.0,0.0142
2918.0,0.0135
2917.0,0.0127
2916.0,0.012
2915.0,0.0113
2914.0,0.0107
2913.0,0.0102
2912.0,0.0097
2911.0,0.0093
2910.0,0.0089
2909.0,0.0086
2908.0,0.0083
2907.0,0.0081
2906.0,0.0078
2905.0,0.0075
2904.0,0.0072
2903.0,0.007
2902.0,0.0067
2901.0,0.0065
2900.0,0.0063
2899.0,0.0062
2898.0,0.006
2897.0,0.0058
2896.0,0.0056
2895.0,0.0055
2894.0,0.0053
2893.0,0.0051
2892.0,0.005
2891.0,0.0048
2890.0,0.0048
2889.0,0.0048
2888.0,0.0048
2887.0,0.0047
2886.0,0.0047
2885.0,0.0047
2884.0,0.0048
2883.0,0.0048
2882.0,0.0048
2881.0,0.0048
2880.0,0.0048
2879.0,0.0048
2878.0,0.0048
2877.0,0.0048
2876.0,0.0048
2875.0,0.0048
2874.0,0.0047
2873.0,0.0046
2872.0,0.0045
2871.0,0.0044
2870.0,0.0043
2869.0,0.0042
2868.0,0.0041
2867.0,0.0041
2866.0,0.0042
2865.0,0.0044
2864.0,0.0046
2863.0,0.0049
2862.0,0.0053
2861.0,0.0057
2860.0,0.0063
2859.0,0.0069
2858.0,0.0075
2857.0,0.0079
2856.0,0.0082
2855.0,0.0084
2854.0,0.0084
2853.0,0.0081
2852.0,0.0076
2851.0,0.007
2850.0,0.0063
2849.0,0.0056
2848.0,0.0049
2847.0,0.0043
2846.0,0.0037
2845.0,0.0031
2844.0,0.0026
2843.0,0.0022
2842.0,0.0019
2841.0,0.0016
2840.0,0.0013
2839.0,0.0011
2838.0,0.0009
2837.0,0.0008
2836.0,0.0007
2835.0,0.0006
2834.0,0.0005
2833.0,0.0003
2832.0,0.0002
2831.0,0.0001
2830.0,-0.0
2829.0,-0.0001
2828.0,-0.0001
2827.0,-0.0001
2826.0,-0.0001
2825.0,-0.0002
2824.0,-0.0002
2823.0,-0.0003
2822.0,-0.0004
2821.0,-0.0004
2820.0,-0.0005
2819.0,-0.0006
2818.0,-0.0006
2817.0,-0.0007
2816.0,-0.0008
2815.0,-0.0008
2814.0,-0.0009
2813.0,-0.0009
2812.0,-0.0009
2811.0,-0.001
2810.0,-0.001
2809.0,-0.001
2808.0,-0.001
2807.0,-0.001
2806.0,-0.001
2805.0,-0.0011
2804.0,-0.0011
2803.0,-0.0012
2802.0,-0.0012
2801.0,-0.0012
2800.0,-0.0012
2799.0,-0.0013
2798.0,-0.0014
2797.0,-0.0014
2796.0,-0.0014
2795.0,-0.0014
2794.0,-0.0014
2793.0,-0.0014
2792.0,-0.0014
2791.0,-0.0015
2790.0,-0.0015
2789.0,-0.0015
2788.0,-0.0015
2787.0,-0.0016
2786.0,-0.0016
2785.0,-0.0016
2784.0,-0.0017
2783.0,-0.0017
2782.0,-0.0017
2781.0,-0.0017
2780.0,-0.0016
2779.0,-0.0016
2778.0,-0.0017
2777.0,-0.0017
2776.0,-0.0018
2775.0,-0.0018
2774.0,-0.0018
2773.0,-0.0018
2772.0,-0.0019
2771.0,-0.0019
2770.0,-0.0019
2769.0,-0.0019
2768.0,-0.0019
2767.0,-0.0019
2766.0,-0.0019
2765.0,-0.0018
2764.0,-0.0018
2763.0,-0.0018
2762.0,-0.0018
2761.0,-0.0019
2760.0,-0.0019
2759.0,-0.002
2758.0,-0.002
2757.0,-0.002
2756.0,-0.002
2755.0,-0.0019
2754.0,-0.0018
2753.0,-0.0018
2752.0,-0.0018
2751.0,-0.0019
2750.0,-0.002
2749.0,-0.002
2748.0,-0.002
2747.0,-0.002
2746.0,-0.002
2745.0,-0.002
2744.0,-0.0019
2743.0,-0.0019
2742.0,-0.0019
2741.0,-0.0019
2740.0,-0.0019
2739.0,-0.0019
2738.0,-0.0019
2737.0,-0.0019
2736.0,-0.0019
2735.0,-0.0019
2734.0,-0.002
2733.0,-0.002
2732.0,-0.002
2731.0,-0.002
2730.0,-0.0019
2729.0,-0.0019
2728.0,-0.0019
2727.0,-0.0019
2726.0,-0.0019
2725.0,-0.0019
2724.0,-0.0019
2723.0,-0.0019
2722.0,-0.002
2721.0,-0.002
2720.0,-0.002
2719.0,-0.002
2718.0,-0.002
2717.0,-0.0019
2716.0,-0.0019
2715.0,-0.0019
2714.0,-0.0019
2713.0,-0.0019
2712.0,-0.0019
2711.0,-0.0019
2710.0,-0.0019
2709.0,-0.0019
2708.0,-0.002
2707.0,-0.002
2706.0,-0.0021
2705.0,-0.0021
2704.0,-0.0021
2703.0,-0.0021
2702.0,-0.0022
2701.0,-0.0022
2700.0,-0.0023
2699.0,-0.0022
2698.0,-0.0022
2697.0,-0.0021
2696.0,-0.0021
2695.0,-0.0021
2694.0,-0.0021
2693.0,-0.0021
2692.0,-0.0021
2691.0,-0.0022
2690.0,-0.0022
2689.0,-0.0022
2688.0,-0.0022
2687.0,-0.0021
2686.0,-0.0021
2685.0,-0.0021
2684.0,-0.0021
2683.0,-0.0021
2682.0,-0.0021
2681.0,-0.0021
2680.0,-0.0021
2679.0,-0.002
2678.0,-0.002
2677.0,-0.002
2676.0,-0.002
2675.0,-0.002
2674.0,-0.002
2673.0,-0.002
2672.0,-0.002
2671.0,-0.0021
2670.0,-0.0021
2669.0,-0.002
2668.0,-0.002
2667.0,-0.002
2666.0,-0.002
2665.0,-0.002
2664.0,-0.002
2663.0,-0.002
2662.0,-0.002
2661.0,-0.002
2660.0,-0.002
2659.0,-0.002
2658.0,-0.002
2657.0,-0.0021
2656.0,-0.0021
2655.0,-0.0021
2654.0,-0.002
2653.0,-0.002
2652.0,-0.0019
2651.0,-0.0019
2650.0,-0.0019
2649.0,-0.0019
2648.0,-0.0019
2647.0,-0.0019
2646.0,-0.0019
2645.0,-0.0019
2644.0,-0.0019
2643.0,-0.002
2642.0,-0.002
2641.0,-0.002
2640.0,-0.002
2639.0,-0.002
2638.0,-0.002
2637.0,-0.002
2636.0,-0.002
2635.0,-0.002
2634.0,-0.002
2633.0,-0.002
2632.0,-0.0021
2631.0,-0.0021
2630.0,-0.0021
2629.0,-0.0021
2628.0,-0.0021
2627.0,-0.0021
