nm,Intensity
526.508,831.5
526.645,831.4
526.782,829.8
526.919,829.7
527.055,828.8
527.192,832.9
527.329,829.8
527.465,830.6
527.602,830.6
527.739,830.2
527.875,829.2
528.012,829.6
528.149,830.0
528.285,829.5
528.422,830.3
528.558,830.5
528.695,829.5
528.832,829.7
528.968,831.4
529.105,829.7
529.241,829.8
529.378,830.1
529.514,831.2
529.651,830.4
529.787,830.7
529.924,829.5
530.061,830.0
530.197,830.7
530.334,829.5
530.47,830.5
530.606,830.4
530.743,831.1
530.879,829.9
531.016,829.0
531.152,829.5
531.289,828.8
531.425,830.8
531.562,831.5
531.698,830.7
531.834,829.4
531.971,837.3
532.107,890.5
532.244,910.0
532.38,850.6
532.516,831.4
532.653,830.5
532.789,829.3
532.925,829.6
533.062,830.2
533.198,830.3
533.334,830.5
533.471,832.6
533.607,841.3
533.743,926.5
533.879,1331.8
534.016,1996.7
534.152,2288.8
534.288,2271.5
534.424,2182.0
534.561,2058.0
534.697,1968.7
534.833,1862.4
534.969,1708.6
535.106,1586.9
535.242,1469.2
535.378,1375.7
535.514,1291.2
535.65,1225.7
535.786,1180.0
535.923,1135.4
536.059,1107.6
536.195,1079.4
536.331,1059.5
536.467,1046.0
536.603,1040.7
536.739,1032.0
536.876,1032.5
537.012,1023.3
537.148,1006.5
537.284,1008.3
537.42,1001.8
537.556,997.1
537.692,993.4
537.828,995.2
537.964,1006.6
538.1,1010.2
538.236,1015.4
538.372,1021.5
538.508,1021.6
538.644,1017.5
538.78,1004.0
538.916,986.0
539.052,963.7
539.188,947.4
539.324,933.6
539.46,927.5
539.596,925.9
539.732,924.4
539.868,921.7
540.004,923.3
540.14,915.6
540.275,917.1
540.411,912.4
540.547,911.6
540.683,908.7
540.819,909.0
540.955,903.6
541.091,903.5
541.227,905.0
541.362,908.8
541.498,902.8
541.634,903.5
541.77,902.6
541.906,905.6
542.041,903.9
542.177,904.4
542.313,903.4
542.449,905.1
542.585,902.2
542.72,902.3
542.856,901.9
542.992,906.3
543.128,902.4
543.263,903.7
543.399,908.7
543.535,909.6
543.67,909.6
543.806,913.9
543.942,913.9
544.078,910.1
544.213,909.1
544.349,906.3
544.485,900.5
544.62,900.5
544.756,898.1
544.892,895.0
545.027,895.2
545.163,893.8
545.298,891.8
545.434,894.0
545.57,892.9
545.705,888.1
545.841,886.4
545.976,886.1
546.112,885.0
546.248,885.2
546.383,884.7
546.519,886.2
546.654,885.3
546.79,886.6
546.925,887.0
547.061,885.1
547.196,885.1
547.332,884.6
547.467,886.0
547.603,886.3
547.738,889.7
547.874,892.8
548.009,892.2
548.145,889.8
548.28,887.9
548.416,888.8
548.551,886.8
548.686,887.9
548.822,885.7
548.957,885.2
549.093,884.1
549.228,882.7
549.363,879.7
549.499,881.2
549.634,880.9
549.77,882.9
549.905,882.8
550.04,883.8
550.176,904.2
550.311,957.2
550.446,963.9
550.582,905.8
550.717,888.5
550.852,881.7
550.988,876.6
551.123,877.5
551.258,877.5
551.394,876.7
551.529,875.1
551.664,871.3
551.799,872.9
551.935,874.3
552.07,874.9
552.205,873.0
552.34,872.2
552.476,873.3
552.611,874.1
552.746,874.1
552.881,878.0
553.016,874.7
553.152,872.5
553.287,870.4
553.422,872.3
553.557,872.1
553.692,876.7
553.827,884.7
553.963,889.7
554.098,893.1
554.233,899.0
554.368,903.7
554.503,910.2
554.638,910.4
554.773,910.6
554.908,906.0
555.043,898.1
555.179,899.6
555.314,907.7
555.449,922.3
555.584,936.7
555.719,951.7
555.854,938.3
555.989,915.8
556.124,902.1
556.259,892.5
556.394,886.5
556.529,879.9
556.664,877.7
556.799,881.0
556.934,887.0
557.069,893.8
557.204,894.7
557.339,885.1
557.474,880.1
557.609,878.9
557.744,882.6
557.879,884.4
558.014,878.4
558.149,882.5
558.284,878.3
558.419,878.0
558.553,881.2
558.688,881.6
558.823,881.8
558.958,886.9
559.093,891.0
559.228,886.3
559.363,881.8
559.498,876.9
559.632,875.9
559.767,874.9
559.902,875.6
560.037,876.6
560.172,874.2
560.307,877.4
560.441,877.0
560.576,876.4
560.711,879.9
560.846,879.1
560.981,881.2
561.115,882.8
561.25,884.1
561.385,891.0
561.52,898.6
561.654,925.2
561.789,957.8
561.924,1064.0
562.059,1451.2
562.193,1657.1
562.328,1202.7
562.463,956.6
562.598,910.0
562.732,915.8
562.867,956.7
563.002,1055.1
563.136,1092.8
563.271,1017.3
563.406,945.4
563.54,913.8
563.675,905.4
563.81,899.5
563.944,904.0
564.079,901.0
564.213,906.0
564.348,910.9
564.483,905.4
564.617,908.5
564.752,904.4
564.887,901.7
565.021,900.0
565.156,906.5
565.29,900.5
565.425,893.5
565.559,885.5
565.694,886.8
565.828,881.9
565.963,879.8
566.098,880.0
566.232,877.6
566.367,880.5
566.501,883.9
566.636,889.1
566.77,905.2
566.905,928.5
567.039,961.0
567.174,954.3
567.308,929.2
567.443,914.2
567.577,920.1
567.711,941.0
567.846,984.9
567.98,997.1
568.115,986.4
568.249,995.6
568.384,1005.0
568.518,1009.2
568.652,997.9
568.787,962.5
568.921,943.5
569.056,920.8
569.19,917.4
569.324,909.7
569.459,904.6
569.593,906.4
569.727,899.5
569.862,899.0
569.996,894.2
570.131,898.6
570.265,895.3
570.399,895.6
570.534,894.9
570.668,897.0
570.802,897.3
570.936,895.7
571.071,895.4
571.205,894.3
571.339,901.3
571.474,902.4
571.608,904.1
571.742,903.7
571.876,906.8
572.011,916.4
572.145,910.7
572.279,921.0
572.413,921.2
572.548,927.7
572.682,932.3
572.816,924.9
572.95,920.4
573.084,918.2
573.219,909.7
573.353,905.4
573.487,905.4
573.621,906.1
573.755,905.6
573.889,906.2
574.024,911.1
574.158,905.5
574.292,900.5
574.426,899.3
574.56,894.5
574.694,896.3
574.828,893.4
574.963,892.7
575.097,891.5
575.231,892.6
575.365,895.2
575.499,893.7
575.633,890.6
575.767,892.4
575.901,893.0
576.035,897.5
576.169,907.2
576.303,916.9
576.437,928.2
576.571,938.2
576.706,942.0
576.84,942.7
576.974,917.2
577.108,903.4
577.242,897.2
577.376,898.8
577.51,892.8
577.644,895.0
577.778,896.5
577.912,894.8
578.046,894.9
578.179,898.4
578.313,896.5
578.447,893.8
578.581,893.2
578.715,894.5
578.849,896.8
578.983,896.2
579.117,892.8
579.251,897.6
579.385,893.7
579.519,893.7
579.653,894.3
579.787,893.5
579.921,891.7
580.054,896.7
580.188,895.1
580.322,895.2
580.456,898.3
580.59,898.9
580.724,906.4
580.858,910.2
580.991,933.2
581.125,976.2
581.259,967.4
581.393,936.0
581.527,961.5
581.661,1034.4
581.794,1118.8
581.928,1073.3
582.062,972.5
582.196,923.7
582.33,913.0
582.463,903.1
582.597,901.5
582.731,898.7
582.865,900.0
582.998,892.2
583.132,895.7
583.266,890.6
583.4,895.4
583.533,894.3
583.667,892.0
583.801,893.2
583.935,892.5
584.068,895.1
584.202,892.8
584.336,892.2
584.469,894.2
584.603,896.2
584.737,891.4
584.87,893.3
585.004,888.9
585.138,889.3
585.271,889.3
585.405,891.6
585.539,889.9
585.672,889.8
585.806,891.2
585.94,888.5
586.073,888.4
586.207,888.9
586.34,889.2
586.474,889.4
586.608,889.3
586.741,887.9
586.875,890.9
587.008,890.6
587.142,889.5
587.276,888.6
587.409,890.0
587.543,889.6
587.676,889.8
587.81,887.8
587.943,885.9
588.077,886.4
588.21,888.2
588.344,885.4
588.478,888.6
588.611,886.1
588.745,889.1
588.878,886.3
589.012,886.2
589.145,885.5
589.279,889.1
589.412,885.2
589.546,884.8
589.679,886.6
589.812,885.3
589.946,884.3
590.079,886.3
590.213,882.9
590.346,886.3
590.48,882.1
590.613,885.8
590.747,887.7
590.88,883.4
591.013,884.5
591.147,884.3
591.28,882.8
591.414,885.5
591.547,884.7
591.68,881.2
591.814,881.9
591.947,887.8
592.081,886.5
592.214,883.4
592.347,884.7
592.481,883.4
592.614,886.5
592.747,882.9
592.881,888.6
593.014,882.8
593.147,883.6
593.281,883.2
593.414,883.8
593.547,881.2
593.681,883.8
593.814,882.3
593.947,883.2
594.081,881.8
594.214,881.1
594.347,884.5
594.48,880.2
594.614,882.7
594.747,883.0
594.88,882.1
595.014,880.4
595.147,880.5
595.28,881.6
595.413,882.7
595.547,883.2
595.68,884.6
595.813,880.2
595.946,885.2
596.079,882.0
596.213,883.0
596.346,881.3
596.479,881.7
596.612,882.4
596.745,880.1
596.879,879.8
597.012,881.5
597.145,881.8
597.278,882.4
597.411,882.3
597.545,883.2
597.678,880.5
597.811,883.1
597.944,886.2
598.077,883.6
598.21,884.5
598.343,881.9
598.476,883.0
598.61,882.8
598.743,879.5
598.876,883.3
599.009,881.4
599.142,884.2
599.275,884.8
599.408,883.5
599.541,884.5
599.674,881.0
599.807,881.8
599.941,883.0
600.074,882.9
600.207,881.7
600.34,881.4
600.473,883.0
600.606,883.9
600.739,886.7
600.872,884.2
601.005,881.8
601.138,883.2
601.271,881.2
601.404,883.4
601.537,884.1
601.67,882.9
601.803,879.5
601.936,879.5
602.069,884.1
602.202,879.6
602.335,883.3
602.468,884.7
602.601,882.3
602.734,884.7
602.867,886.6
603.0,885.5
603.133,884.9
603.266,886.2
603.399,884.0
603.532,881.6
603.664,879.7
603.797,884.1
603.93,883.5
604.063,882.0
604.196,882.2
604.329,884.7
604.462,884.0
604.595,881.6
604.728,886.6
604.861,886.8
604.994,881.6
605.126,885.7
605.259,881.6
605.392,882.4
605.525,883.5
605.658,885.9
605.791,885.3
605.924,885.1
606.056,883.5
606.189,882.3
606.322,885.0
606.455,881.5
606.588,885.0
606.721,885.8
606.853,886.2
606.986,887.2
607.119,888.1
607.252,885.6
607.385,886.2
607.517,886.1
607.65,886.1
607.783,887.7
607.916,886.2
608.049,888.2
608.181,887.8
608.314,886.5
608.447,888.9
608.58,888.2
608.712,885.6
608.845,887.5
608.978,891.3
609.111,886.9
609.243,889.5
609.376,890.2
609.509,890.6
609.641,888.7
609.774,887.2
609.907,888.8
610.04,888.1
610.172,890.8
610.305,889.1
610.438,891.2
610.57,887.8
610.703,887.4
610.836,889.9
610.968,890.2
611.101,891.3
611.234,894.4
611.366,892.1
611.499,893.1
611.632,896.5
611.764,892.0
611.897,896.9
612.03,892.1
612.162,891.9
612.295,891.3
612.428,896.3
612.56,895.9
612.693,896.0
612.825,894.1
612.958,897.1
613.091,895.3
613.223,897.5
613.356,897.8
613.488,896.0
613.621,897.9
613.754,894.2
613.886,896.7
614.019,899.5
614.151,899.2
614.284,896.0
614.416,898.5
614.549,899.1
614.681,897.4
614.814,899.0
614.947,899.0
615.079,896.6
615.212,899.1
615.344,902.7
615.477,902.0
615.609,901.8
615.742,898.5
615.874,899.9
616.007,903.2
616.139,906.2
616.272,905.6
616.404,903.8
616.537,901.8
616.669,905.8
616.802,901.2
616.934,901.5
617.067,907.0
617.199,904.7
617.332,907.7
617.464,909.9
617.596,904.3
617.729,909.7
617.861,909.8
617.994,909.8
618.126,908.3
618.259,911.4
618.391,910.6
618.524,910.4
618.656,910.4
618.788,910.3
618.921,909.4
619.053,909.7
619.186,907.8
619.318,910.1
619.45,908.1
619.583,908.1
619.715,909.6
619.848,912.9
619.98,910.9
620.112,909.6
620.245,910.8
620.377,910.6
620.509,912.0
620.642,909.7
620.774,913.7
620.907,909.6
621.039,910.0
621.171,915.8
621.304,908.6
621.436,910.8
621.568,909.6
621.701,910.3
621.833,907.7
621.965,910.3
622.097,912.4
622.23,912.6
622.362,916.3
622.494,913.1
622.627,916.3
622.759,909.4
622.891,914.1
623.024,912.7
623.156,914.8
623.288,915.4
623.42,912.8
623.553,913.4
623.685,911.4
623.817,916.1
623.949,913.6
624.082,915.6
624.214,914.2
624.346,918.3
624.479,917.0
624.611,918.7
624.743,920.1
624.875,914.3
625.007,918.6
625.14,918.3
625.272,916.0
625.404,915.9
625.536,915.8
625.669,920.4
625.801,916.5
625.933,917.4
626.065,922.6
626.197,918.3
626.33,925.8
626.462,925.9
626.594,928.2
626.726,932.7
626.858,947.2
626.99,962.0
627.123,985.6
627.255,1011.4
627.387,1018.1
627.519,1015.9
627.651,1014.5
627.783,1001.0
627.916,989.1
628.048,982.5
628.18,978.9
628.312,984.4
628.444,996.3
628.576,1008.3
628.708,1025.7
628.84,1040.3
628.973,1060.6
629.105,1080.0
629.237,1100.1
629.369,1112.0
629.501,1117.8
629.633,1113.9
629.765,1110.9
629.897,1096.2
630.029,1083.0
630.161,1070.2
630.294,1061.9
630.426,1049.1
630.558,1039.4
630.69,1025.8
630.822,1015.8
630.954,1005.8
631.086,996.5
631.218,981.6
631.35,974.4
631.482,967.9
631.614,961.9
631.746,964.4
631.878,961.3
632.01,960.8
632.142,963.7
632.274,983.4
632.406,988.5
632.538,977.1
632.67,963.0
632.802,953.8
632.934,948.4
633.066,957.3
633.198,970.9
633.33,989.7
633.462,986.5
633.594,969.2
633.726,963.3
633.858,957.2
633.99,968.5
634.122,979.7
634.254,1010.0
634.386,1043.1
634.518,1080.5
634.65,1122.5
634.782,1156.3
634.914,1165.8
635.046,1189.0
635.178,1275.9
635.31,1386.2
635.442,1453.8
635.574,1461.2
635.706,1437.7
635.838,1387.1
635.97,1301.7
636.102,1203.0
636.234,1128.0
636.365,1068.8
636.497,1034.7
636.629,1009.4
636.761,996.4
636.893,983.8
637.025,970.9
637.157,962.6
637.289,961.5
637.421,953.7
637.553,954.1
637.685,951.5
637.816,953.0
637.948,945.9
638.08,942.9
638.212,939.8
638.344,937.7
638.476,938.4
638.608,939.5
638.74,937.4
638.871,933.1
639.003,937.3
639.135,938.2
639.267,936.4
639.399,940.5
639.531,940.3
639.662,942.1
639.794,945.2
639.926,953.0
640.058,945.5
640.19,943.8
640.322,944.9
640.453,940.5
640.585,941.3
640.717,940.7
640.849,939.9
640.981,935.8
641.113,941.7
641.244,943.2
641.376,949.6
641.508,949.2
641.64,948.7
641.772,943.1
641.903,937.1
642.035,936.9
642.167,936.1
642.299,935.9
642.43,931.8
642.562,936.7
642.694,930.5
642.826,930.5
642.958,935.5
643.089,932.1
643.221,930.2
643.353,935.4
643.485,930.0
643.616,932.2
643.748,928.6
643.88,929.8
644.012,929.2
644.143,932.8
644.275,930.9
644.407,934.8
644.538,932.1
644.67,930.1
644.802,930.0
644.934,931.3
645.065,934.4
645.197,929.7
645.329,930.3
645.461,933.1
645.592,933.3
645.724,933.0
645.856,930.6
645.987,934.8
646.119,933.0
646.251,929.6
646.382,929.8
646.514,932.7
646.646,931.0
646.777,932.4
646.909,934.0
647.041,932.5
647.172,932.9
647.304,932.2
647.436,929.4
647.567,933.7
647.699,937.0
647.831,935.0
647.962,936.6
648.094,932.5
648.226,934.8
648.357,937.5
648.489,932.8
648.621,934.9
648.752,936.0
648.884,936.7
649.016,930.1
649.147,934.8
649.279,935.6
649.411,933.4
649.542,933.7
649.674,934.7
649.805,932.7
649.937,933.5
650.069,935.3
650.2,936.6
650.332,938.2
650.463,936.8
650.595,932.8
650.727,935.2
650.858,940.2
650.99,933.3
651.121,936.6
651.253,936.0
651.385,935.1
651.516,934.4
651.648,937.4
651.779,942.1
651.911,933.4
652.043,937.8
652.174,938.3
652.306,938.1
652.437,934.7
652.569,938.5
652.7,940.1
652.832,937.1
652.963,938.4
653.095,937.2
653.227,937.8
653.358,938.5
653.49,937.2
653.621,935.4
653.753,935.8
653.884,936.4
654.016,939.0
654.147,936.0
654.279,942.8
654.41,935.6
654.542,939.5
654.674,934.2
654.805,937.0
654.937,939.6
655.068,938.2
655.2,935.5
655.331,938.6
655.463,942.2
655.594,937.0
655.726,938.3
655.857,942.2
655.989,939.4
656.12,937.3
656.252,939.8
656.383,937.6
656.515,942.8
656.646,939.4
656.778,941.6
656.909,939.1
657.041,939.6
657.172,941.9
657.304,941.9
657.435,941.5
657.567,941.4
657.698,942.3
657.829,938.3
657.961,942.8
658.092,944.6
658.224,941.7
658.355,941.2
658.487,939.4
658.618,944.8
658.75,940.9
658.881,944.3
659.013,943.8
659.144,939.6
659.275,944.8
659.407,940.6
659.538,946.4
659.67,944.8
659.801,947.5
659.933,945.5
660.064,941.7
660.196,941.2
660.327,942.8
660.458,943.0
660.59,939.9
660.721,944.2
660.853,945.6
660.984,945.6
661.116,942.1
661.247,942.6
661.378,940.6
661.51,942.0
661.641,940.9
661.773,944.7
661.904,945.9
662.035,942.4
662.167,940.8
662.298,941.6
662.43,938.6
662.561,940.3
662.692,944.6
662.824,941.5
662.955,947.2
663.087,942.8
