nm,Intensity
528.65,1845.65
528.734,1846.0
528.819,1846.45
528.903,1847.1
528.987,1846.1
529.071,1846.95
529.155,1846.05
529.239,1845.8
529.324,1846.15
529.408,1846.15
529.492,1846.6
529.576,1845.9
529.66,1847.5
529.745,1846.0
529.829,1845.35
529.913,1846.85
529.997,1846.2
530.081,1845.6
530.165,1846.3
530.25,1846.2
530.334,1846.75
530.418,1846.4
530.502,1847.0
530.586,1846.45
530.67,1847.3
530.754,1845.85
530.839,1847.8
530.923,1847.0
531.007,1846.65
531.091,1846.95
531.175,1847.4
531.259,1847.8
531.344,1848.9
531.428,1849.2
531.512,1849.35
531.596,1853.0
531.68,1862.8
531.764,1906.0
531.848,2048.3
531.933,2385.9
532.017,2850.85
532.101,2965.0
532.185,2709.85
532.269,2229.75
532.353,1922.25
532.437,1853.2
532.521,1847.6
532.606,1846.6
532.69,1846.35
532.774,1845.9
532.858,1846.95
532.942,1846.8
533.026,1845.4
533.11,1845.8
533.194,1845.95
533.279,1847.6
533.363,1847.75
533.447,1849.0
533.531,1851.85
533.615,1862.15
533.699,1876.8
533.783,1899.65
533.867,1919.1
533.951,1929.55
534.036,1939.6
534.12,1944.1
534.204,1942.35
534.288,1943.1
534.372,1946.8
534.456,1944.15
534.54,1947.65
534.624,1953.95
534.708,1958.55
534.792,1963.25
534.877,1971.2
534.961,1987.4
535.045,1999.65
535.129,2006.75
535.213,1996.35
535.297,1983.95
535.381,1976.2
535.465,1959.15
535.549,1958.3
535.633,1958.55
535.717,1977.65
535.801,1979.05
535.886,1975.0
535.97,1970.5
536.054,1960.15
536.138,1964.5
536.222,1957.75
536.306,1950.75
536.39,1943.05
536.474,1930.2
536.558,1931.2
536.642,1928.8
536.726,1935.35
536.81,1944.75
536.894,1955.95
536.978,1964.4
537.062,1977.95
537.146,1996.05
537.231,2001.4
537.315,1988.95
537.399,1972.75
537.483,1949.55
537.567,1934.8
537.651,1925.05
537.735,1921.25
537.819,1918.85
537.903,1923.65
537.987,1929.5
538.071,1932.65
538.155,1936.75
538.239,1931.95
538.323,1926.95
538.407,1924.6
538.491,1918.85
538.575,1916.85
538.659,1916.75
538.743,1922.5
538.827,1922.9
538.911,1928.95
538.995,1924.05
539.079,1935.1
539.163,1937.6
539.247,1938.0
539.331,1930.6
539.415,1927.95
539.499,1925.8
539.583,1922.8
539.667,1918.35
539.751,1914.1
539.835,1912.7
539.919,1909.15
540.003,1906.15
540.087,1902.65
540.171,1904.55
540.255,1905.6
540.339,1905.45
540.423,1905.4
540.507,1904.05
540.591,1903.1
540.675,1905.1
540.759,1907.3
540.843,1910.85
540.927,1916.5
541.011,1923.6
541.095,1929.75
541.179,1933.1
541.263,1935.4
541.347,1931.0
541.431,1922.15
541.515,1917.8
541.599,1913.75
541.683,1911.1
541.767,1906.1
541.851,1905.9
541.935,1904.75
542.019,1905.2
542.103,1903.55
542.187,1902.7
542.271,1904.25
542.355,1899.4
542.439,1903.35
542.523,1905.4
542.607,1905.45
542.691,1903.25
542.775,1911.45
542.859,1911.05
542.943,1910.1
543.027,1913.5
543.111,1915.95
543.195,1921.5
543.279,1928.6
543.363,1945.85
543.446,1968.7
543.53,2003.65
543.614,2026.1
543.698,2029.7
543.782,2025.75
543.866,2033.75
543.95,2043.9
544.034,2075.15
544.118,2097.4
544.202,2070.15
544.286,2016.5
544.37,1972.9
544.454,1942.8
544.538,1931.7
544.622,1931.6
544.706,1920.75
544.789,1917.55
544.873,1918.95
544.957,1929.75
545.041,1931.8
545.125,1948.85
545.209,1948.05
545.293,1958.75
545.377,1958.7
545.461,1946.75
545.545,1946.8
545.629,1943.55
545.713,1940.35
545.796,1941.7
545.88,1955.9
545.964,1976.95
546.048,1994.95
546.132,2037.95
546.216,2113.8
546.3,2211.7
546.384,2315.8
546.468,2356.95
546.552,2330.8
546.635,2219.7
546.719,2107.65
546.803,2020.9
546.887,1982.4
546.971,1965.85
547.055,1955.75
547.139,1943.7
547.223,1942.05
547.306,1937.3
547.39,1941.9
547.474,1943.6
547.558,1945.4
547.642,1932.2
547.726,1933.4
547.81,1932.0
547.894,1919.1
547.977,1920.55
548.061,1916.1
548.145,1915.15
548.229,1914.95
548.313,1917.85
548.397,1918.05
548.481,1919.4
548.564,1919.95
548.648,1918.0
548.732,1918.95
548.816,1923.65
548.9,1926.8
548.984,1929.7
549.068,1929.3
549.151,1933.4
549.235,1934.05
549.319,1933.85
549.403,1936.85
549.487,1937.95
549.571,1940.75
549.655,1949.75
549.738,1948.5
549.822,1951.75
549.906,1969.2
549.99,1975.75
550.074,1992.5
550.158,2011.4
550.241,2023.0
550.325,2013.9
550.409,1991.4
550.493,1976.2
550.577,1947.15
550.66,1933.9
550.744,1922.35
550.828,1914.25
550.912,1913.9
550.996,1911.05
551.08,1906.2
551.163,1911.55
551.247,1908.9
551.331,1905.65
551.415,1906.1
551.499,1910.1
551.582,1909.0
551.666,1914.6
551.75,1909.5
551.834,1913.2
551.918,1911.95
552.001,1910.65
552.085,1908.55
552.169,1908.7
552.253,1906.1
552.337,1903.45
552.42,1900.5
552.504,1905.1
552.588,1905.5
552.672,1903.55
552.755,1901.85
552.839,1899.4
552.923,1899.4
553.007,1897.1
553.091,1901.05
553.174,1900.0
553.258,1902.05
553.342,1900.4
553.426,1901.1
553.509,1898.15
553.593,1899.2
553.677,1898.5
553.761,1900.2
553.844,1901.0
553.928,1899.8
554.012,1902.9
554.096,1899.8
554.179,1897.45
554.263,1902.9
554.347,1902.7
554.431,1904.7
554.514,1902.35
554.598,1905.3
554.682,1906.3
554.766,1903.95
554.849,1907.6
554.933,1908.9
555.017,1909.95
555.101,1911.2
555.184,1911.85
555.268,1913.95
555.352,1920.05
555.436,1920.65
555.519,1930.05
555.603,1941.05
555.687,1960.15
555.771,1996.55
555.854,2055.85
555.938,2126.4
556.022,2184.3
556.105,2196.25
556.189,2141.15
556.273,2069.8
556.357,2004.9
556.44,1971.75
556.524,1966.35
556.608,1977.7
556.691,1981.0
556.775,1996.1
556.859,2015.7
556.943,2036.85
557.026,2049.15
557.11,2045.45
557.194,2029.35
557.277,1990.95
557.361,1967.9
557.445,1953.15
557.528,1943.5
557.612,1932.45
557.696,1927.2
557.779,1924.75
557.863,1925.8
557.947,1925.85
558.031,1915.8
558.114,1919.75
558.198,1921.4
558.282,1914.65
558.365,1918.05
558.449,1921.6
558.533,1919.6
558.616,1922.7
558.7,1925.8
558.784,1926.95
558.867,1936.1
558.951,1931.55
559.035,1925.75
559.118,1920.4
559.202,1918.3
559.286,1917.8
559.369,1916.75
559.453,1916.25
559.537,1919.25
559.62,1921.9
559.704,1924.6
559.788,1925.55
559.871,1930.65
559.955,1940.25
560.038,1948.4
560.122,1950.75
560.206,1953.1
560.289,1953.9
560.373,1945.85
560.457,1939.9
560.54,1937.8
560.624,1941.85
560.708,1947.5
560.791,1959.6
560.875,1973.2
560.958,2009.45
561.042,2045.9
561.126,2092.3
561.209,2119.6
561.293,2105.5
561.377,2065.85
561.46,2024.3
561.544,2015.3
561.627,2025.45
561.711,2052.35
561.795,2102.7
561.878,2199.1
561.962,2409.8
562.045,2838.35
562.129,3467.05
562.213,4056.45
562.296,4416.0
562.38,4241.1
562.463,3466.55
562.547,2702.15
562.631,2250.45
562.714,2090.95
562.798,2031.1
562.881,2009.2
562.965,2000.1
563.049,1994.05
563.132,1996.35
563.216,1999.5
563.299,1997.05
563.383,1986.85
563.467,1974.3
563.55,1964.15
563.634,1953.7
563.717,1950.1
563.801,1937.85
563.884,1934.25
563.968,1932.45
564.052,1934.75
564.135,1931.4
564.219,1927.45
564.302,1932.65
564.386,1930.9
564.469,1931.1
564.553,1931.7
564.636,1932.4
564.72,1933.0
564.804,1933.05
564.887,1932.9
564.971,1937.25
565.054,1936.7
565.138,1945.65
565.221,1955.1
565.305,1950.45
565.388,1952.15
565.472,1953.95
565.556,1951.65
565.639,1948.7
565.723,1951.6
565.806,1949.6
565.89,1958.55
565.973,1959.55
566.057,1978.1
566.14,1990.65
566.224,2020.85
566.307,2055.8
566.391,2103.9
566.474,2133.75
566.558,2137.35
566.641,2139.0
566.725,2136.55
566.808,2133.15
566.892,2126.35
566.975,2121.6
567.059,2124.5
567.142,2112.2
567.226,2112.2
567.309,2125.0
567.393,2135.7
567.476,2124.45
567.56,2081.25
567.643,2025.2
567.727,1990.2
567.81,1972.15
567.894,1956.55
567.977,1950.2
568.061,1946.45
568.144,1949.75
568.228,1949.25
568.311,1952.1
568.395,1951.25
568.478,1957.65
568.562,1951.25
568.645,1957.6
568.729,1969.85
568.812,1976.85
568.896,1995.9
568.979,2004.95
569.063,2011.9
569.146,2006.0
569.23,1994.5
569.313,1982.75
569.396,1972.5
569.48,1963.7
569.563,1956.65
569.647,1952.95
569.73,1956.6
569.814,1960.0
569.897,1958.5
569.981,1965.5
570.064,1974.95
570.148,1991.25
570.231,1993.8
570.314,1987.3
570.398,1971.95
570.481,1966.75
570.565,1953.6
570.648,1957.8
570.732,1952.15
570.815,1957.25
570.898,1957.8
570.982,1962.75
571.065,1964.3
571.149,1961.75
571.232,1967.35
571.316,1970.05
571.399,1977.85
571.482,1981.6
571.566,1995.05
571.649,1994.35
571.733,1994.35
571.816,1995.6
571.9,2000.05
571.983,1996.65
572.066,1992.7
572.15,2006.6
572.233,2012.2
572.317,2030.05
572.4,2057.5
572.483,2101.0
572.567,2133.55
572.65,2156.15
572.734,2145.45
572.817,2118.7
572.9,2074.0
572.984,2042.05
573.067,2021.35
573.15,2005.8
573.234,2003.05
573.317,2005.85
573.401,2028.0
573.484,2037.6
573.567,2050.05
573.651,2053.0
573.734,2050.7
573.818,2031.0
573.901,2014.8
573.984,2007.95
574.068,1997.6
574.151,1997.95
574.234,1989.8
574.318,1982.8
574.401,1974.0
574.484,1968.6
574.568,1967.95
574.651,1965.65
574.734,1958.4
574.818,1965.9
574.901,1954.35
574.985,1958.4
575.068,1958.15
575.151,1960.5
575.235,1958.1
575.318,1955.35
575.401,1956.25
575.485,1957.85
575.568,1962.6
575.651,1964.45
575.735,1972.05
575.818,1980.25
575.901,1994.65
575.985,2016.45
576.068,2047.15
576.151,2059.65
576.235,2068.55
576.318,2066.1
576.401,2067.75
576.484,2075.3
576.568,2096.3
576.651,2134.3
576.734,2173.3
576.818,2211.4
576.901,2245.95
576.984,2244.8
577.068,2218.0
577.151,2155.7
577.234,2093.6
577.318,2048.6
577.401,2012.1
577.484,1993.5
577.567,1980.3
577.651,1975.55
577.734,1970.25
577.817,1958.75
577.901,1963.0
577.984,1955.85
578.067,1958.55
578.15,1953.45
578.234,1952.9
578.317,1949.95
578.4,1956.45
578.484,1952.8
578.567,1947.0
578.65,1950.55
578.733,1949.3
578.817,1947.0
578.9,1947.7
578.983,1948.15
579.066,1946.65
579.15,1943.35
579.233,1942.05
579.316,1947.9
579.399,1944.2
579.483,1943.15
579.566,1940.95
579.649,1945.6
579.732,1944.35
579.816,1946.7
579.899,1943.65
579.982,1937.3
580.065,1939.2
580.149,1944.3
580.232,1944.5
580.315,1941.55
580.398,1941.35
580.482,1937.95
580.565,1941.15
580.648,1938.2
580.731,1936.65
580.815,1935.9
580.898,1937.7
580.981,1939.9
581.064,1940.4
581.147,1938.1
581.231,1938.3
581.314,1934.85
581.397,1937.3
581.48,1937.85
581.563,1938.25
581.647,1936.3
581.73,1933.2
581.813,1934.95
581.896,1940.4
581.979,1936.95
582.063,1937.4
582.146,1938.75
582.229,1941.1
582.312,1939.0
582.395,1938.4
582.479,1933.25
582.562,1938.25
582.645,1945.2
582.728,1938.9
582.811,1934.5
582.895,1942.15
582.978,1942.7
583.061,1934.5
583.144,1934.35
583.227,1934.25
583.31,1937.95
583.394,1939.3
583.477,1933.25
583.56,1936.1
583.643,1928.9
583.726,1933.6
583.809,1932.95
583.893,1932.05
583.976,1936.7
584.059,1931.1
584.142,1928.9
584.225,1934.0
584.308,1933.8
584.391,1935.1
584.475,1931.65
584.558,1929.6
584.641,1928.8
584.724,1930.6
584.807,1927.75
584.89,1936.25
584.973,1930.55
585.057,1927.0
585.14,1926.65
585.223,1928.45
585.306,1929.75
585.389,1932.8
585.472,1928.1
585.555,1925.15
585.638,1927.1
585.722,1928.0
585.805,1927.85
585.888,1925.85
585.971,1928.8
586.054,1929.3
586.137,1924.65
586.22,1925.6
586.303,1920.6
586.386,1923.0
586.47,1923.6
586.553,1927.2
586.636,1927.15
586.719,1924.4
586.802,1927.85
586.885,1919.65
586.968,1925.15
587.051,1925.0
587.134,1924.55
587.217,1919.75
587.3,1918.35
587.384,1921.3
587.467,1922.05
587.55,1923.45
587.633,1925.95
587.716,1923.5
587.799,1923.0
587.882,1926.05
587.965,1926.8
588.048,1925.15
588.131,1923.35
588.214,1925.1
588.297,1920.35
588.38,1923.45
588.463,1919.7
588.546,1925.05
588.63,1921.0
588.713,1920.5
588.796,1918.15
588.879,1914.8
588.962,1913.95
589.045,1920.9
589.128,1922.2
589.211,1916.9
589.294,1921.35
589.377,1918.75
589.46,1916.4
589.543,1912.5
589.626,1913.8
589.709,1916.8
589.792,1919.3
589.875,1920.45
589.958,1918.8
590.041,1918.45
590.124,1920.3
590.207,1918.3
590.29,1918.2
590.373,1917.7
590.456,1916.05
590.539,1919.35
590.622,1921.1
590.705,1918.25
590.788,1920.95
590.871,1918.0
590.954,1919.65
591.037,1919.85
591.12,1917.35
591.203,1918.5
591.286,1918.45
591.369,1916.05
591.452,1918.15
591.535,1918.15
591.618,1921.0
591.701,1926.75
591.784,1917.95
591.867,1923.45
591.95,1920.7
592.033,1922.15
592.116,1919.95
592.199,1922.8
592.282,1921.75
592.365,1920.2
592.448,1918.85
592.531,1920.0
592.614,1920.7
592.697,1920.4
592.78,1923.0
592.863,1918.55
592.946,1922.15
593.029,1919.5
593.112,1916.15
593.195,1922.95
593.278,1914.9
593.361,1918.75
593.443,1919.2
593.526,1920.15
593.609,1920.6
593.692,1919.15
593.775,1919.9
593.858,1918.55
593.941,1917.35
594.024,1914.05
594.107,1916.65
594.19,1916.6
594.273,1914.35
594.356,1916.25
594.439,1916.6
594.522,1921.1
594.604,1919.35
594.687,1915.25
594.77,1918.45
594.853,1915.6
594.936,1917.65
595.019,1923.35
595.102,1920.65
595.185,1915.25
595.268,1920.25
595.351,1921.5
595.434,1916.35
595.516,1918.05
595.599,1915.6
595.682,1918.6
595.765,1921.15
595.848,1919.95
595.931,1924.6
596.014,1922.25
596.097,1919.15
596.18,1920.5
596.262,1914.8
596.345,1919.05
596.428,1918.55
596.511,1914.7
596.594,1915.0
596.677,1919.25
596.76,1919.9
596.843,1919.65
596.925,1917.4
597.008,1918.65
597.091,1917.65
597.174,1920.25
597.257,1918.45
597.34,1923.05
597.423,1917.7
597.505,1922.1
597.588,1915.2
597.671,1911.1
597.754,1915.5
597.837,1914.5
597.92,1918.55
598.002,1916.3
598.085,1914.0
598.168,1917.85
598.251,1918.9
598.334,1917.55
598.417,1915.55
598.499,1918.6
598.582,1914.15
598.665,1915.35
598.748,1918.55
598.831,1920.6
598.914,1915.8
598.996,1915.8
599.079,1916.8
599.162,1916.15
599.245,1916.6
599.328,1916.25
599.41,1916.4
599.493,1918.6
599.576,1918.45
599.659,1919.0
599.742,1916.1
599.824,1914.45
599.907,1911.0
599.99,1922.6
600.073,1916.65
600.156,1920.0
600.238,1919.4
600.321,1917.05
600.404,1915.9
600.487,1916.8
600.57,1917.7
600.652,1921.95
600.735,1916.05
600.818,1918.55
600.901,1917.4
600.983,1911.85
601.066,1914.95
601.149,1916.5
601.232,1912.3
601.314,1911.2
601.397,1915.75
601.48,1917.05
601.563,1915.15
601.645,1912.95
601.728,1910.3
601.811,1916.2
601.894,1917.0
601.976,1910.95
602.059,1914.25
602.142,1916.15
602.225,1915.5
602.307,1917.4
602.39,1917.55
602.473,1916.7
602.556,1920.7
602.638,1922.45
602.721,1915.35
602.804,1915.9
602.887,1917.15
602.969,1916.95
603.052,1915.05
603.135,1916.6
603.217,1916.35
603.3,1915.65
603.383,1916.65
603.466,1919.1
603.548,1916.55
603.631,1915.5
603.714,1914.55
603.796,1916.3
603.879,1915.2
603.962,1923.3
604.045,1917.0
604.127,1917.15
604.21,1909.85
604.293,1916.35
604.375,1915.45
604.458,1917.35
604.541,1914.15
604.623,1916.15
604.706,1917.15
604.789,1910.6
604.871,1918.05
604.954,1917.3
605.037,1917.1
605.119,1917.0
605.202,1918.0
605.285,1918.5
605.367,1919.95
605.45,1915.0
605.533,1913.45
605.615,1915.15
605.698,1917.8
605.781,1917.6
605.863,1913.25
605.946,1914.45
606.029,1919.25
606.111,1916.7
606.194,1917.45
606.277,1916.1
606.359,1919.9
606.442,1919.35
606.524,1917.7
606.607,1917.75
606.69,1917.5
606.772,1921.05
606.855,1916.85
606.938,1918.6
607.02,1915.45
607.103,1916.85
607.185,1917.7
607.268,1916.55
607.351,1915.6
607.433,1915.35
607.516,1909.6
607.599,1914.25
607.681,1918.55
607.764,1916.0
607.846,1919.4
607.929,1915.0
608.012,1917.0
608.094,1914.05
608.177,1909.7
608.259,1914.75
608.342,1914.9
608.425,1914.15
608.507,1914.05
608.59,1914.3
608.672,1917.35
608.755,1918.8
608.837,1914.45
608.92,1907.5
609.003,1911.65
609.085,1913.9
609.168,1909.6
609.25,1911.85
609.333,1914.5
609.415,1916.05
609.498,1916.5
609.581,1913.45
609.663,1913.5
609.746,1913.4
609.828,1912.6
609.911,1910.4
609.993,1916.75
610.076,1909.45
610.158,1909.45
610.241,1913.2
610.324,1908.85
610.406,1912.4
610.489,1915.7
610.571,1913.35
610.654,1913.85
610.736,1913.0
610.819,1912.85
610.901,1911.95
610.984,1912.85
611.066,1912.9
611.149,1912.85
611.231,1913.6
611.314,1912.45
611.396,1912.75
611.479,1914.65
611.561,1912.25
611.644,1910.55
611.727,1912.85
611.809,1914.55
611.892,1910.35
611.974,1908.6
612.057,1911.8
612.139,1916.0
612.222,1907.85
612.304,1914.95
612.386,1915.2
612.469,1910.5
612.551,1914.25
612.634,1912.5
612.716,1914.55
612.799,1911.95
612.881,1914.55
612.964,1914.6
613.046,1908.5
613.129,1909.95
613.211,1910.7
613.294,1911.1
613.376,1912.5
613.459,1909.2
613.541,1909.55
613.624,1911.2
613.706,1907.25
613.789,1910.7
613.871,1913.95
613.953,1915.75
614.036,1911.9
614.118,1913.55
614.201,1912.75
614.283,1913.65
614.366,1916.7
614.448,1912.45
614.531,1912.5
614.613,1912.65
614.695,1913.5
614.778,1917.1
614.86,1916.05
614.943,1912.15
615.025,1916.9
615.108,1916.0
615.19,1918.85
615.272,1915.0
615.355,1919.05
615.437,1920.5
615.52,1916.7
615.602,1913.55
615.684,1913.75
615.767,1915.65
615.849,1916.0
615.932,1913.4
616.014,1915.35
616.097,1910.05
616.179,1915.65
616.261,1917.75
616.344,1915.45
616.426,1915.35
616.508,1915.45
616.591,1916.6
616.673,1916.85
616.756,1917.1
616.838,1920.2
616.92,1922.9
617.003,1926.1
617.085,1925.45
617.168,1921.45
617.25,1923.3
617.332,1921.45
617.415,1923.4
617.497,1917.1
617.579,1922.65
617.662,1925.15
617.744,1923.2
617.826,1924.8
617.909,1918.9
617.991,1917.35
618.073,1923.65
618.156,1929.95
618.238,1928.95
618.32,1926.7
618.403,1919.15
618.485,1926.3
618.567,1926.75
618.65,1922.25
618.732,1925.8
618.814,1923.5
618.897,1921.9
618.979,1926.2
619.061,1928.9
619.144,1930.55
619.226,1931.55
619.308,1929.85
619.391,1944.15
619.473,1939.95
619.555,1942.2
619.638,1937.3
619.72,1945.25
619.802,1938.25
619.885,1945.3
619.967,1935.35
620.049,1936.2
620.131,1940.45
620.214,1938.8
620.296,1937.1
620.378,1936.25
620.461,1940.05
620.543,1938.25
620.625,1937.8
620.707,1942.35
620.79,1938.85
620.872,1937.65
620.954,1938.6
621.037,1939.75
621.119,1942.2
621.201,1950.35
621.283,1946.85
621.366,1950.4
621.448,1953.35
621.53,1963.15
621.612,1969.8
621.695,1975.2
621.777,1979.35
621.859,1991.6
621.941,1994.2
622.024,2003.9
622.106,2017.65
622.188,2028.5
622.27,2035.8
622.353,2034.1
622.435,2028.45
622.517,2014.0
622.599,2010.35
622.682,1998.9
622.764,1987.6
622.846,1985.05
622.928,1969.5
623.01,1966.65
623.093,1967.8
623.175,1961.25
623.257,1961.5
623.339,1954.5
623.422,1951.3
623.504,1951.5
623.586,1945.25
623.668,1947.95
623.75,1942.25
623.833,1940.55
623.915,1937.55
623.997,1936.7
624.079,1936.7
624.161,1932.7
624.244,1933.0
624.326,1930.25
624.408,1934.35
624.49,1937.55
624.572,1935.3
624.654,1935.0
624.737,1935.3
624.819,1937.65
624.901,1938.65
624.983,1940.7
625.065,1944.55
625.147,1942.8
625.23,1939.55
625.312,1947.75
625.394,1948.25
625.476,1946.35
625.558,1948.35
625.64,1952.85
625.723,1954.25
625.805,1966.4
625.887,1973.55
625.969,1974.85
626.051,1979.65
626.133,1998.35
626.215,2018.2
626.298,2044.8
626.38,2071.25
626.462,2133.3
626.544,2200.2
626.626,2296.0
626.708,2414.6
626.79,2481.0
626.872,2525.8
626.955,2550.35
627.037,2507.85
627.119,2422.9
627.201,2329.9
627.283,2292.5
627.365,2237.1
627.447,2234.9
627.529,2257.0
627.611,2339.9
627.693,2448.05
627.776,2581.6
627.858,2742.65
627.94,2914.85
628.022,2977.4
628.104,2974.85
628.186,3018.65
628.268,3085.9
628.35,3171.1
628.432,3256.25
628.514,3354.05
628.596,3419.6
628.678,3421.4
628.761,3375.55
628.843,3244.65
628.925,3119.85
629.007,3023.05
629.089,3010.4
629.171,2999.95
629.253,2996.5
629.335,2982.05
629.417,3018.15
629.499,3006.5
629.581,2950.05
629.663,2915.1
629.745,2854.95
629.827,2812.65
629.909,2783.3
629.991,2736.2
630.073,2727.85
630.155,2737.5
630.237,2763.85
630.319,2734.35
630.401,2653.45
630.483,2583.7
630.565,2505.65
630.647,2451.0
630.73,2381.55
630.812,2348.0
630.894,2351.55
630.976,2400.7
631.058,2460.65
631.14,2552.8
631.222,2650.45
631.304,2782.0
631.386,2859.2
631.468,2885.65
631.55,2928.5
631.632,2970.5
631.714,2971.45
631.796,2965.8
631.877,2903.05
631.959,2768.65
632.041,2630.6
632.123,2506.45
632.205,2405.8
632.287,2308.2
632.369,2215.25
632.451,2164.35
632.533,2112.45
632.615,2077.25
632.697,2050.2
632.779,2030.4
632.861,2009.1
632.943,1997.95
633.025,1992.6
633.107,1983.7
633.189,1972.7
633.271,1967.35
633.353,1960.15
633.435,1956.45
633.517,1953.45
633.599,1953.4
633.681,1948.05
633.763,1945.55
633.844,1936.3
633.926,1938.35
634.008,1939.85
634.09,1936.8
634.172,1930.5
634.254,1933.0
634.336,1926.15
634.418,1929.9
634.5,1921.45
634.582,1924.4
634.664,1918.9
634.746,1923.6
634.827,1919.95
634.909,1921.7
634.991,1921.65
635.073,1920.9
635.155,1918.5
635.237,1919.85
635.319,1917.1
635.401,1917.25
635.483,1915.5
635.564,1917.8
635.646,1919.65
635.728,1914.45
635.81,1917.5
635.892,1917.6
635.974,1911.2
636.056,1908.8
636.138,1913.35
636.219,1912.9
636.301,1912.4
636.383,1913.05
