nm,Intensity
526.508,828.8
526.645,830.0
526.782,830.4
526.919,830.5
527.055,829.9
527.192,831.3
527.329,831.3
527.465,831.7
527.602,829.3
527.739,829.7
527.875,831.8
528.012,830.0
528.149,830.1
528.285,829.8
528.422,829.2
528.558,829.6
528.695,830.5
528.832,831.1
528.968,830.6
529.105,830.3
529.241,828.9
529.378,829.8
529.514,829.4
529.651,830.8
529.787,829.3
529.924,829.5
530.061,830.2
530.197,829.3
530.334,830.4
530.47,829.3
530.606,829.9
530.743,828.4
530.879,830.2
531.016,830.0
531.152,829.5
531.289,830.7
531.425,829.5
531.562,830.7
531.698,829.9
531.834,830.0
531.971,831.3
532.107,854.4
532.244,865.0
532.38,838.7
532.516,830.9
532.653,830.3
532.789,830.8
532.925,830.4
533.062,830.4
533.198,831.2
533.334,830.4
533.471,829.6
533.607,828.9
533.743,836.8
533.879,859.4
534.016,892.7
534.152,902.0
534.288,899.0
534.424,892.3
534.561,893.7
534.697,903.0
534.833,914.3
534.969,927.0
535.106,941.3
535.242,941.2
535.378,922.7
535.514,899.3
535.65,884.4
535.786,870.1
535.923,862.6
536.059,859.2
536.195,856.5
536.331,858.7
536.467,855.5
536.603,856.5
536.739,863.8
536.876,872.1
537.012,881.1
537.148,891.8
537.284,888.7
537.42,875.9
537.556,866.0
537.692,859.3
537.828,855.8
537.964,853.1
538.1,852.9
538.236,851.3
538.372,853.3
538.508,851.8
538.644,850.9
538.78,852.6
538.916,853.0
539.052,853.5
539.188,857.5
539.324,858.9
539.46,862.4
539.596,859.8
539.732,855.7
539.868,851.2
540.004,847.9
540.14,847.1
540.275,846.0
540.411,845.6
540.547,842.0
540.683,844.9
540.819,843.0
540.955,846.4
541.091,848.8
541.227,854.0
541.362,858.5
541.498,858.2
541.634,856.3
541.77,849.9
541.906,847.1
542.041,844.4
542.177,845.2
542.313,842.1
542.449,843.6
542.585,842.4
542.72,841.6
542.856,842.2
542.992,846.9
543.128,847.9
543.263,850.6
543.399,858.3
543.535,884.6
543.67,932.2
543.806,930.0
543.942,889.6
544.078,867.0
544.213,857.4
544.349,852.8
544.485,849.4
544.62,847.6
544.756,845.9
544.892,847.0
545.027,848.8
545.163,852.7
545.298,866.0
545.434,869.3
545.57,864.6
545.705,858.1
545.841,848.5
545.976,844.0
546.112,844.1
546.248,843.5
546.383,843.8
546.519,842.8
546.654,841.2
546.79,841.9
546.925,842.7
547.061,844.9
547.196,847.2
547.332,852.9
547.467,859.9
547.603,863.8
547.738,857.0
547.874,851.9
548.009,847.3
548.145,843.8
548.28,842.3
548.416,841.2
548.551,840.7
548.686,840.9
548.822,841.5
548.957,837.5
549.093,838.8
549.228,839.9
549.363,837.2
549.499,838.7
549.634,838.4
549.77,837.1
549.905,838.1
550.04,837.5
550.176,839.1
550.311,837.6
550.446,836.8
550.582,837.8
550.717,837.2
550.852,836.1
550.988,838.3
551.123,839.1
551.258,836.8
551.394,836.7
551.529,838.8
551.664,838.0
551.799,838.6
551.935,839.2
552.07,839.2
552.205,837.5
552.34,837.1
552.476,839.1
552.611,837.9
552.746,838.0
552.881,838.6
553.016,837.1
553.152,838.5
553.287,837.9
553.422,838.2
553.557,838.1
553.692,839.5
553.827,837.3
553.963,838.5
554.098,838.7
554.233,840.4
554.368,838.9
554.503,842.4
554.638,841.0
554.773,842.7
554.908,843.5
555.043,843.1
555.179,845.0
555.314,847.5
555.449,848.0
555.584,852.1
555.719,860.6
555.854,876.7
555.989,923.0
556.124,989.1
556.259,953.6
556.394,891.0
556.529,878.7
556.664,876.8
556.799,891.9
556.934,914.2
557.069,961.8
557.204,969.1
557.339,906.7
557.474,878.3
557.609,864.3
557.744,858.4
557.879,850.7
558.014,852.4
558.149,852.0
558.284,850.0
558.419,847.3
558.553,847.0
558.688,852.0
558.823,858.7
558.958,861.8
559.093,859.3
559.228,851.0
559.363,846.7
559.498,844.8
559.632,847.0
559.767,846.2
559.902,846.9
560.037,854.7
560.172,866.2
560.307,868.3
560.441,857.9
560.576,852.5
560.711,851.5
560.846,853.9
560.981,860.1
561.115,883.0
561.25,912.0
561.385,897.4
561.52,865.2
561.654,856.9
561.789,859.3
561.924,875.4
562.059,894.0
562.193,884.3
562.328,862.6
562.463,857.6
562.598,854.0
562.732,854.2
562.867,855.3
563.002,860.6
563.136,876.1
563.271,886.6
563.406,881.5
563.54,872.5
563.675,861.3
563.81,856.8
563.944,851.2
564.079,847.6
564.213,848.7
564.348,848.2
564.483,847.6
564.617,847.4
564.752,849.2
564.887,848.5
565.021,849.5
565.156,852.3
565.29,857.0
565.425,859.4
565.559,856.3
565.694,851.3
565.828,853.0
565.963,851.0
566.098,849.0
566.232,849.6
566.367,853.8
566.501,860.4
566.636,871.1
566.77,905.3
566.905,952.0
567.039,963.4
567.174,929.4
567.308,916.4
567.443,923.3
567.577,905.6
567.711,874.7
567.846,858.9
567.98,853.0
568.115,851.7
568.249,854.9
568.384,852.5
568.518,856.2
568.652,859.2
568.787,862.9
568.921,871.5
569.056,889.7
569.19,895.1
569.324,879.5
569.459,863.4
569.593,859.8
569.727,855.7
569.862,854.6
569.996,855.5
570.131,858.0
570.265,864.9
570.399,862.2
570.534,856.5
570.668,854.3
570.802,853.4
570.936,855.4
571.071,854.8
571.205,858.7
571.339,861.4
571.474,864.0
571.608,870.5
571.742,869.8
571.876,871.1
572.011,868.2
572.145,866.6
572.279,875.3
572.413,892.9
572.548,928.0
572.682,989.4
572.816,983.4
572.95,923.0
573.084,890.2
573.219,875.0
573.353,875.4
573.487,887.6
573.621,906.5
573.755,916.0
573.889,894.3
574.024,881.4
574.158,874.9
574.292,875.7
574.426,867.5
574.56,857.2
574.694,855.4
574.828,853.1
574.963,854.1
575.097,853.3
575.231,853.7
575.365,853.0
575.499,855.3
575.633,858.2
575.767,855.9
575.901,861.9
576.035,878.6
576.169,920.0
576.303,924.5
576.437,912.3
576.571,922.0
576.706,947.3
576.84,1000.3
576.974,1044.0
577.108,1035.2
577.242,972.2
577.376,909.7
577.51,880.5
577.644,871.6
577.778,864.5
577.912,862.3
578.046,859.0
578.179,856.8
578.313,858.1
578.447,855.5
578.581,856.0
578.715,853.2
578.849,855.4
578.983,855.8
579.117,853.6
579.251,853.5
579.385,854.4
579.519,854.4
579.653,856.7
579.787,853.8
579.921,853.3
580.054,854.5
580.188,853.5
580.322,854.7
580.456,855.5
580.59,852.4
580.724,851.7
580.858,853.7
580.991,853.7
581.125,854.1
581.259,855.4
581.393,852.3
581.527,852.3
581.661,854.8
581.794,854.6
581.928,855.2
582.062,854.3
582.196,853.8
582.33,854.6
582.463,856.1
582.597,854.6
582.731,854.4
582.865,854.9
582.998,854.8
583.132,855.4
583.266,854.7
583.4,853.1
583.533,854.5
583.667,854.9
583.801,853.6
583.935,852.4
584.068,854.8
584.202,855.5
584.336,855.0
584.469,855.0
584.603,855.5
584.737,856.7
584.87,855.2
585.004,854.5
585.138,854.6
585.271,855.8
585.405,853.9
585.539,853.9
585.672,852.6
585.806,852.0
585.94,852.6
586.073,849.0
586.207,852.9
586.34,850.1
586.474,850.9
586.608,852.1
586.741,852.1
586.875,853.4
587.008,851.3
587.142,849.0
587.276,852.0
587.409,850.9
587.543,853.0
587.676,851.1
587.81,852.2
587.943,850.7
588.077,851.9
588.21,850.5
588.344,851.3
588.478,850.0
588.611,849.9
588.745,849.4
588.878,850.2
589.012,847.2
589.145,849.3
589.279,848.9
589.412,850.0
589.546,848.2
589.679,848.4
589.812,848.4
589.946,848.5
590.079,850.1
590.213,848.5
590.346,848.1
590.48,849.3
590.613,847.5
590.747,848.6
590.88,849.2
591.013,849.9
591.147,848.2
591.28,846.9
591.414,849.5
591.547,851.3
591.68,847.5
591.814,849.8
591.947,848.2
592.081,850.8
592.214,848.9
592.347,848.2
592.481,846.9
592.614,848.8
592.747,848.6
592.881,849.6
593.014,848.0
593.147,845.5
593.281,848.4
593.414,846.4
593.547,847.0
593.681,847.6
593.814,847.9
593.947,847.9
594.081,847.8
594.214,846.4
594.347,847.5
594.48,848.1
594.614,847.7
594.747,844.9
594.88,847.4
595.014,846.1
595.147,846.3
595.28,847.5
595.413,845.1
595.547,846.1
595.68,847.8
595.813,847.6
595.946,848.1
596.079,847.8
596.213,845.0
596.346,848.2
596.479,846.4
596.612,846.0
596.745,847.6
596.879,845.4
597.012,846.3
597.145,846.2
597.278,845.7
597.411,846.8
597.545,846.0
597.678,847.6
597.811,844.9
597.944,848.0
598.077,846.0
598.21,847.7
598.343,844.3
598.476,847.0
598.61,845.8
598.743,846.9
598.876,846.2
599.009,845.0
599.142,848.4
599.275,846.5
599.408,847.3
599.541,847.4
599.674,847.0
599.807,848.9
599.941,848.5
600.074,845.9
600.207,846.1
600.34,845.4
600.473,845.4
600.606,846.3
600.739,846.0
600.872,845.1
601.005,845.1
601.138,843.8
601.271,845.7
601.404,844.7
601.537,845.4
601.67,844.6
601.803,843.9
601.936,847.9
602.069,845.5
602.202,844.6
602.335,846.4
602.468,844.4
602.601,846.4
602.734,845.6
602.867,846.5
603.0,844.2
603.133,846.5
603.266,845.7
603.399,844.8
603.532,845.4
603.664,846.1
603.797,846.2
603.93,845.9
604.063,849.3
604.196,846.1
604.329,845.3
604.462,847.9
604.595,847.8
604.728,847.5
604.861,847.4
604.994,847.7
605.126,847.3
605.259,846.7
605.392,847.0
605.525,847.3
605.658,845.6
605.791,846.4
605.924,846.6
606.056,845.7
606.189,846.2
606.322,848.0
606.455,846.6
606.588,846.4
606.721,847.8
606.853,845.5
606.986,848.9
607.119,846.5
607.252,847.3
607.385,847.3
607.517,846.0
607.65,847.6
607.783,848.7
607.916,846.5
608.049,848.0
608.181,843.1
608.314,845.9
608.447,846.1
608.58,845.9
608.712,844.4
608.845,848.4
608.978,844.6
609.111,845.3
609.243,845.7
609.376,844.7
609.509,847.4
609.641,846.2
609.774,846.6
609.907,844.8
610.04,847.2
610.172,845.4
610.305,846.0
610.438,846.8
610.57,847.3
610.703,845.5
610.836,846.5
610.968,846.7
611.101,846.1
611.234,844.5
611.366,846.2
611.499,847.5
611.632,845.7
611.764,845.7
611.897,845.6
612.03,846.1
612.162,845.6
612.295,847.9
612.428,846.0
612.56,847.0
612.693,847.1
612.825,845.8
612.958,845.9
613.091,845.8
613.223,847.0
613.356,847.6
613.488,845.2
613.621,844.0
613.754,846.1
613.886,845.1
614.019,846.0
614.151,846.9
614.284,848.9
614.416,846.0
614.549,847.6
614.681,845.0
614.814,848.3
614.947,847.1
615.079,844.5
615.212,848.0
615.344,849.4
615.477,844.8
615.609,847.2
615.742,849.4
615.874,847.1
616.007,847.2
616.139,848.4
616.272,847.3
616.404,848.7
616.537,850.3
616.669,849.1
616.802,847.8
616.934,850.1
617.067,852.7
617.199,851.0
617.332,853.2
617.464,853.7
617.596,852.0
617.729,853.5
617.861,854.0
617.994,853.0
618.126,850.8
618.259,853.2
618.391,852.5
618.524,854.2
618.656,852.7
618.788,853.6
618.921,857.2
619.053,853.8
619.186,855.6
619.318,860.3
619.45,860.5
619.583,863.9
619.715,867.6
619.848,865.0
619.98,863.0
620.112,865.0
620.245,865.0
620.377,860.5
620.509,861.9
620.642,860.8
620.774,859.9
620.907,862.4
621.039,861.8
621.171,861.2
621.304,861.9
621.436,866.4
621.568,868.3
621.701,877.5
621.833,884.3
621.965,888.8
622.097,894.0
622.23,905.3
622.362,918.0
622.494,912.3
622.627,897.3
622.759,889.9
622.891,886.7
623.024,881.3
623.156,875.0
623.288,870.6
623.42,872.4
623.553,869.8
623.685,868.1
623.817,864.4
623.949,862.9
624.082,860.3
624.214,859.5
624.346,860.0
624.479,857.6
624.611,856.8
624.743,858.5
624.875,862.4
625.007,859.3
625.14,863.9
625.272,863.0
625.404,864.0
625.536,864.6
625.669,870.9
625.801,871.6
625.933,876.8
626.065,885.3
626.197,893.7
626.33,904.9
626.462,927.9
626.594,978.6
626.726,1079.8
626.858,1202.2
626.99,1243.0
627.123,1188.4
627.255,1099.9
627.387,1029.6
627.519,1013.8
627.651,1028.1
627.783,1119.7
627.916,1289.0
628.048,1428.5
628.18,1450.0
628.312,1465.0
628.444,1546.5
628.576,1671.1
628.708,1709.7
628.84,1658.4
628.973,1578.8
629.105,1495.3
629.237,1455.4
629.369,1462.8
629.501,1510.8
629.633,1479.4
629.765,1387.6
629.897,1304.2
630.029,1280.8
630.161,1301.7
630.294,1315.4
630.426,1300.1
630.558,1234.9
630.69,1162.2
630.822,1092.5
630.954,1065.5
631.086,1088.7
631.218,1184.1
631.35,1279.4
631.482,1320.5
631.614,1301.6
631.746,1274.5
631.878,1237.7
632.01,1169.8
632.142,1097.8
632.274,1030.8
632.406,973.0
632.538,943.7
632.67,915.3
632.802,901.7
632.934,894.3
633.066,884.2
633.198,879.5
633.33,869.3
633.462,870.5
633.594,864.1
633.726,868.2
633.858,861.7
633.99,861.2
634.122,860.0
634.254,857.4
634.386,856.2
634.518,855.0
634.65,855.7
634.782,851.8
634.914,854.4
635.046,851.9
635.178,852.3
635.31,852.5
635.442,850.5
635.574,850.2
635.706,851.0
635.838,852.4
635.97,849.7
636.102,851.1
636.234,848.1
636.365,847.4
636.497,848.2
636.629,848.2
636.761,848.6
636.893,847.9
637.025,848.8
637.157,849.2
637.289,850.3
637.421,848.7
637.553,846.0
637.685,849.1
637.816,848.1
637.948,845.9
638.08,847.1
638.212,848.6
638.344,847.7
638.476,846.8
638.608,846.9
638.74,848.8
638.871,847.4
639.003,848.9
639.135,848.3
639.267,850.1
639.399,849.4
639.531,850.3
639.662,847.4
639.794,847.8
639.926,847.8
640.058,846.5
640.19,848.3
640.322,847.2
640.453,848.4
640.585,847.4
640.717,847.3
640.849,849.5
640.981,846.5
641.113,847.7
641.244,849.2
641.376,850.0
641.508,848.9
641.64,847.9
641.772,847.3
641.903,845.8
642.035,845.8
642.167,847.1
642.299,843.8
642.43,845.1
642.562,846.0
642.694,843.7
642.826,843.4
642.958,844.9
643.089,844.0
643.221,843.1
643.353,844.4
643.485,844.5
643.616,842.0
643.748,842.1
643.88,841.5
644.012,840.5
644.143,842.3
644.275,841.8
644.407,842.1
644.538,843.8
644.67,840.6
644.802,841.4
644.934,839.3
645.065,841.9
645.197,840.8
645.329,841.9
645.461,841.3
645.592,839.1
645.724,840.2
645.856,841.9
645.987,839.1
646.119,839.9
646.251,839.8
646.382,840.5
646.514,840.8
646.646,839.9
646.777,840.2
646.909,839.1
647.041,840.8
647.172,840.1
647.304,840.4
647.436,840.8
647.567,839.5
647.699,839.7
647.831,840.9
647.962,840.5
648.094,839.8
648.226,839.7
648.357,841.3
648.489,841.2
648.621,839.3
648.752,839.9
648.884,841.1
649.016,839.2
649.147,839.7
649.279,838.7
649.411,839.0
649.542,838.5
649.674,841.1
649.805,840.2
649.937,840.1
650.069,839.4
650.2,839.1
650.332,839.0
650.463,840.3
650.595,840.4
650.727,841.6
650.858,839.8
650.99,840.9
651.121,839.5
651.253,840.2
651.385,839.7
651.516,838.3
651.648,838.6
651.779,838.3
651.911,838.4
652.043,838.0
652.174,836.6
652.306,838.4
652.437,838.5
652.569,840.5
652.7,840.0
652.832,840.3
652.963,838.1
653.095,837.7
653.227,838.4
653.358,839.1
653.49,838.5
653.621,838.6
653.753,841.0
653.884,839.5
654.016,839.1
654.147,838.3
654.279,839.7
654.41,836.2
654.542,838.5
654.674,838.4
654.805,838.2
654.937,838.3
655.068,838.3
655.2,837.8
655.331,837.6
655.463,838.8
655.594,838.5
655.726,837.8
655.857,838.5
655.989,835.8
656.12,836.6
656.252,838.3
656.383,837.7
656.515,836.8
656.646,838.7
656.778,837.6
656.909,837.8
657.041,838.3
657.172,837.5
657.304,838.8
657.435,838.2
657.567,838.2
657.698,838.5
657.829,838.8
657.961,836.9
658.092,838.5
658.224,837.7
658.355,839.0
658.487,838.8
658.618,836.6
658.75,839.3
658.881,838.8
659.013,840.1
659.144,837.2
659.275,839.0
659.407,836.3
659.538,837.1
659.67,838.3
659.801,836.9
659.933,836.7
660.064,837.9
660.196,839.3
660.327,838.4
660.458,838.5
660.59,837.8
660.721,836.9
660.853,836.4
660.984,837.0
661.116,836.8
661.247,837.7
661.378,836.1
661.51,836.0
661.641,837.5
661.773,837.3
661.904,837.5
662.035,837.8
662.167,836.4
662.298,836.3
662.43,836.6
662.561,835.6
662.692,838.4
662.824,836.2
662.955,836.6
663.087,835.7
