nm,Intensity
526.486,828.0
526.622,830.6
526.759,829.6
526.896,831.0
527.033,831.9
527.169,830.3
527.306,830.5
527.443,829.2
527.579,831.0
527.716,829.1
527.853,830.2
527.989,829.8
528.126,830.2
528.263,830.2
528.399,829.9
528.536,829.6
528.672,831.1
528.809,829.9
528.946,831.1
529.082,828.5
529.219,830.8
529.355,829.9
529.492,830.2
529.628,830.0
529.765,829.9
529.901,829.3
530.038,829.8
530.174,831.1
530.311,829.7
530.447,830.7
530.584,830.5
530.72,831.6
530.857,829.9
530.993,831.4
531.13,830.7
531.266,829.4
531.403,829.7
531.539,831.1
531.676,829.1
531.812,830.3
531.948,832.5
532.085,851.0
532.221,867.1
532.358,841.4
532.494,830.7
532.63,829.6
532.767,831.4
532.903,830.9
533.039,830.5
533.176,830.1
533.312,831.1
533.448,830.9
533.585,837.7
533.721,900.2
533.857,1257.8
533.993,1956.1
534.13,2338.6
534.266,2331.3
534.402,2226.5
534.539,2120.8
534.675,2023.3
534.811,1894.5
534.947,1761.0
535.083,1611.4
535.22,1501.1
535.356,1390.2
535.492,1301.7
535.628,1238.5
535.764,1186.9
535.901,1133.9
536.037,1099.6
536.173,1077.0
536.309,1053.5
536.445,1040.3
536.581,1027.0
536.717,1019.3
536.854,1014.2
536.99,1016.8
537.126,1007.3
537.262,1003.0
537.398,994.2
537.534,986.2
537.67,986.0
537.806,988.9
537.942,989.5
538.078,993.3
538.214,1002.7
538.35,1010.3
538.486,1018.5
538.622,1009.2
538.758,1000.5
538.894,976.2
539.03,955.4
539.166,939.9
539.302,919.5
539.438,914.8
539.574,912.9
539.71,908.9
539.846,909.8
539.982,904.0
540.118,904.7
540.254,906.1
540.39,903.7
540.526,903.0
540.662,896.7
540.798,894.1
540.933,894.6
541.069,896.8
541.205,900.2
541.341,893.7
541.477,895.1
541.613,900.0
541.749,897.0
541.884,896.5
542.02,899.6
542.156,893.0
542.292,892.9
542.428,891.7
542.563,894.7
542.699,890.6
542.835,893.5
542.971,895.5
543.106,898.0
543.242,897.4
543.378,900.9
543.514,904.6
543.649,903.2
543.785,908.2
543.921,911.9
544.057,910.9
544.192,906.4
544.328,902.0
544.464,899.8
544.599,894.1
544.735,893.5
544.871,896.2
545.006,893.4
545.142,891.0
545.278,892.2
545.413,885.4
545.549,889.9
545.684,887.5
545.82,885.9
545.956,884.6
546.091,886.1
546.227,882.2
546.362,885.0
546.498,883.4
546.634,885.0
546.769,886.1
546.905,887.1
547.04,887.1
547.176,887.3
547.311,885.3
547.447,887.7
547.582,886.9
547.718,893.3
547.853,891.0
547.989,894.2
548.124,889.7
548.26,892.7
548.395,890.8
548.531,889.6
548.666,892.0
548.802,890.8
548.937,888.9
549.072,886.4
549.208,887.7
549.343,886.8
549.479,888.0
549.614,887.1
549.75,886.6
549.885,885.6
550.02,890.6
550.156,904.5
550.291,957.8
550.426,973.8
550.562,919.2
550.697,891.6
550.832,888.0
550.968,883.0
551.103,880.7
551.238,879.6
551.374,881.3
551.509,882.4
551.644,878.5
551.78,879.0
551.915,881.7
552.05,877.6
552.185,880.1
552.321,878.8
552.456,881.9
552.591,877.7
552.726,883.6
552.862,883.6
552.997,884.9
553.132,884.2
553.267,877.3
553.403,880.2
553.538,887.9
553.673,883.5
553.808,892.0
553.943,897.5
554.078,907.4
554.214,910.3
554.349,916.2
554.484,919.7
554.619,925.8
554.754,925.8
554.889,917.2
555.024,909.9
555.16,913.5
555.295,915.2
555.43,937.5
555.565,956.0
555.7,962.6
555.835,956.5
555.97,935.1
556.105,914.0
556.24,907.1
556.375,895.8
556.51,892.3
556.645,890.0
556.78,893.3
556.915,898.1
557.05,902.3
557.185,909.1
557.32,902.9
557.455,898.4
557.59,890.6
557.725,894.7
557.86,895.6
557.995,893.0
558.13,891.0
558.265,888.9
558.4,893.5
558.535,891.6
558.67,893.8
558.805,892.2
558.94,902.7
559.075,905.6
559.21,901.9
559.345,898.5
559.479,892.8
559.614,890.5
559.749,891.7
559.884,891.2
560.019,887.7
560.154,894.7
560.289,892.6
560.424,892.3
560.558,896.4
560.693,891.8
560.828,893.6
560.963,898.2
561.098,897.1
561.232,899.2
561.367,906.3
561.502,916.2
561.637,934.3
561.772,973.6
561.906,1064.5
562.041,1422.8
562.176,1733.7
562.311,1307.3
562.445,1000.7
562.58,929.9
562.715,922.4
562.85,965.1
562.984,1067.4
563.119,1123.3
563.254,1058.0
563.388,973.8
563.523,933.6
563.658,919.9
563.792,915.8
563.927,917.9
564.062,920.9
564.196,922.9
564.331,925.9
564.466,924.7
564.6,924.2
564.735,923.0
564.87,916.1
565.004,917.5
565.139,917.6
565.273,918.6
565.408,917.0
565.543,908.0
565.677,901.2
565.812,898.8
565.946,895.5
566.081,892.9
566.215,895.5
566.35,895.0
566.485,897.8
566.619,905.0
566.754,919.3
566.888,943.4
567.023,984.2
567.157,972.3
567.292,942.5
567.426,929.2
567.561,932.4
567.695,951.4
567.83,995.8
567.964,1017.6
568.099,1011.7
568.233,1015.5
568.368,1029.1
568.502,1036.7
568.636,1018.8
568.771,989.8
568.905,963.5
569.04,945.3
569.174,932.1
569.309,927.2
569.443,921.9
569.577,917.1
569.712,911.9
569.846,913.8
569.98,911.8
570.115,911.3
570.249,909.0
570.384,907.8
570.518,910.0
570.652,909.1
570.787,910.4
570.921,908.7
571.055,916.3
571.19,911.1
571.324,911.9
571.458,914.8
571.592,917.1
571.727,920.7
571.861,924.8
571.995,923.2
572.13,927.8
572.264,932.8
572.398,939.9
572.532,944.6
572.667,947.6
572.801,942.4
572.935,937.3
573.069,929.1
573.204,928.8
573.338,921.0
573.472,917.7
573.606,919.8
573.74,918.0
573.875,924.2
574.009,923.2
574.143,922.5
574.277,920.3
574.411,912.5
574.545,910.7
574.68,907.1
574.814,906.1
574.948,900.2
575.082,905.7
575.216,904.8
575.35,908.0
575.484,903.5
575.619,899.7
575.753,904.1
575.887,909.5
576.021,909.3
576.155,916.3
576.289,926.7
576.423,942.0
576.557,952.9
576.691,958.1
576.825,958.7
576.959,933.9
577.093,916.5
577.227,909.5
577.361,907.7
577.495,906.6
577.629,904.7
577.763,903.7
577.897,909.6
578.031,908.6
578.165,906.8
578.299,906.3
578.433,903.5
578.567,905.0
578.701,905.6
578.835,906.7
578.969,905.6
579.103,903.0
579.237,908.8
579.371,906.1
579.505,904.6
579.639,905.1
579.773,904.6
579.907,907.7
580.041,905.6
580.175,907.5
580.309,908.6
580.442,909.3
580.576,909.2
580.71,912.1
580.844,925.0
580.978,941.7
581.112,979.9
581.246,988.7
581.38,954.0
581.513,971.4
581.647,1038.5
581.781,1130.2
581.915,1112.5
582.049,999.1
582.183,938.9
582.316,925.4
582.45,918.4
582.584,917.2
582.718,916.1
582.852,911.7
582.985,910.7
583.119,908.6
583.253,907.3
583.387,904.7
583.52,907.6
583.654,909.2
583.788,906.4
583.922,907.0
584.055,906.1
584.189,909.4
584.323,911.4
584.456,907.4
584.59,907.5
584.724,910.5
584.858,909.8
584.991,906.6
585.125,908.5
585.259,905.9
585.392,905.6
585.526,906.7
585.66,906.8
585.793,907.2
585.927,909.0
586.061,903.7
586.194,904.4
586.328,904.2
586.462,908.2
586.595,908.2
586.729,907.4
586.862,908.7
586.996,908.0
587.13,903.8
587.263,908.0
587.397,905.6
587.53,907.1
587.664,906.7
587.797,905.7
587.931,905.7
588.065,906.1
588.198,908.4
588.332,907.2
588.465,907.7
588.599,908.0
588.732,903.4
588.866,902.9
588.999,908.1
589.133,905.4
589.266,907.9
589.4,906.1
589.533,905.7
589.667,904.5
589.8,905.1
589.934,904.2
590.067,905.3
590.201,907.4
590.334,907.7
590.468,907.5
590.601,907.2
590.735,907.4
590.868,906.8
591.001,904.7
591.135,907.8
591.268,906.3
591.402,905.0
591.535,907.5
591.669,908.3
591.802,904.5
591.935,907.0
592.069,905.8
592.202,904.5
592.335,905.4
592.469,907.3
592.602,910.0
592.736,909.5
592.869,906.4
593.002,908.0
593.136,910.4
593.269,906.8
593.402,905.9
593.536,907.5
593.669,906.9
593.802,907.7
593.936,910.0
594.069,908.1
594.202,910.0
594.336,908.4
594.469,909.3
594.602,906.9
594.735,908.2
594.869,910.7
595.002,907.0
595.135,908.5
595.268,910.8
595.402,910.2
595.535,911.0
595.668,911.3
595.801,912.4
595.935,908.4
596.068,907.0
596.201,909.0
596.334,910.5
596.468,910.8
596.601,911.6
596.734,909.0
596.867,908.9
597.0,907.5
597.133,912.5
597.267,912.4
597.4,911.3
597.533,911.0
597.666,908.5
597.799,910.8
597.932,913.1
598.066,908.9
598.199,909.5
598.332,915.3
598.465,913.0
598.598,915.0
598.731,913.1
598.864,916.4
598.998,912.0
599.131,915.3
599.264,913.0
599.397,915.2
599.53,913.3
599.663,914.2
599.796,914.7
599.929,916.3
600.062,917.8
600.195,919.1
600.328,914.8
600.461,913.9
600.594,912.8
600.727,917.5
600.86,914.1
600.994,917.0
601.127,914.9
601.26,915.0
601.393,914.6
601.526,918.0
601.659,916.8
601.792,918.2
601.925,920.0
602.058,919.0
602.191,919.2
602.324,917.8
602.457,915.5
602.589,917.2
602.722,919.0
602.855,919.2
602.988,919.1
603.121,917.9
603.254,917.4
603.387,918.4
603.52,920.9
603.653,923.6
603.786,919.7
603.919,917.8
604.052,920.7
604.185,920.6
604.318,918.5
604.451,920.3
604.583,920.7
604.716,920.7
604.849,921.5
604.982,922.3
605.115,918.2
605.248,922.4
605.381,921.0
605.514,920.8
605.646,920.1
605.779,918.9
605.912,920.1
606.045,918.4
606.178,918.5
606.311,919.9
606.443,919.2
606.576,921.5
606.709,919.6
606.842,923.6
606.975,920.4
607.107,923.1
607.24,921.6
607.373,919.5
607.506,920.2
607.639,923.6
607.771,926.2
607.904,920.9
608.037,926.2
608.17,923.4
608.302,923.9
608.435,927.3
608.568,928.2
608.701,927.0
608.833,928.1
608.966,924.3
609.099,928.1
609.232,926.2
609.364,926.0
609.497,926.9
609.63,921.6
609.762,922.0
609.895,927.3
610.028,925.0
610.161,923.1
610.293,926.5
610.426,927.2
610.559,926.6
610.691,927.0
610.824,925.6
610.957,925.9
611.089,929.3
611.222,929.0
611.355,928.6
611.487,930.5
611.62,931.7
611.752,932.6
611.885,929.7
612.018,931.9
612.15,932.5
612.283,931.7
612.416,930.8
612.548,934.7
612.681,935.0
612.813,934.7
612.946,936.6
613.078,940.5
613.211,936.3
613.344,937.4
613.476,937.3
613.609,939.5
613.741,939.3
613.874,938.3
614.006,941.5
614.139,938.5
614.272,937.1
614.404,940.4
614.537,940.3
614.669,938.9
614.802,940.8
614.934,941.3
615.067,942.5
615.199,939.6
615.332,940.6
615.464,940.1
615.597,940.1
615.729,941.4
615.862,940.7
615.994,940.5
616.127,941.9
616.259,942.3
616.392,941.7
616.524,943.0
616.657,945.3
616.789,946.5
616.922,945.7
617.054,945.5
617.186,946.7
617.319,948.7
617.451,948.4
617.584,946.6
617.716,946.4
617.849,951.8
617.981,950.8
618.113,952.9
618.246,951.6
618.378,953.7
618.511,953.2
618.643,954.8
618.775,950.5
618.908,953.0
619.04,951.1
619.173,949.9
619.305,952.0
619.437,949.1
619.57,950.8
619.702,950.6
619.834,947.7
619.967,948.7
620.099,951.1
620.231,950.3
620.364,951.8
620.496,950.8
620.628,952.7
620.761,950.5
620.893,953.0
621.025,957.5
621.158,952.2
621.29,953.1
621.422,951.4
621.555,957.9
621.687,952.0
621.819,953.5
621.952,957.6
622.084,958.8
622.216,954.4
622.348,956.8
622.481,956.6
622.613,955.5
622.745,953.7
622.878,956.7
623.01,959.7
623.142,955.3
623.274,955.0
623.407,957.4
623.539,955.9
623.671,955.4
623.803,962.8
623.935,959.7
624.068,959.5
624.2,959.3
624.332,958.7
624.464,962.3
624.597,965.9
624.729,962.7
624.861,962.5
624.993,960.8
625.125,963.4
625.258,960.0
625.39,960.0
625.522,964.8
625.654,960.5
625.786,966.0
625.918,965.2
626.051,962.7
626.183,963.7
626.315,965.6
626.447,970.6
626.579,973.7
626.711,978.0
626.844,991.4
626.976,1005.6
627.108,1032.6
627.24,1054.8
627.372,1068.9
627.504,1069.5
627.636,1057.8
627.768,1050.2
627.901,1039.1
628.033,1030.9
628.165,1028.4
628.297,1040.0
628.429,1041.9
628.561,1057.9
628.693,1067.8
628.825,1092.3
628.957,1114.4
629.089,1133.9
629.221,1154.7
629.354,1171.0
629.486,1173.0
629.618,1166.1
629.75,1162.0
629.882,1154.1
630.014,1137.2
630.146,1133.1
630.278,1116.8
630.41,1101.7
630.542,1089.4
630.674,1084.1
630.806,1068.6
630.938,1060.0
631.07,1047.8
631.202,1030.3
631.334,1024.5
631.466,1019.7
631.598,1012.5
631.73,1013.3
631.862,1011.2
631.994,1004.6
632.126,1012.0
632.258,1024.4
632.39,1034.7
632.522,1029.2
632.654,1012.3
632.786,1002.2
632.918,1000.8
633.05,1004.7
633.182,1012.8
633.314,1036.8
633.446,1036.2
633.578,1027.6
633.71,1008.0
633.842,1010.8
633.974,1010.7
634.106,1032.2
634.237,1056.1
634.369,1092.9
634.501,1133.4
634.633,1177.2
634.765,1211.6
634.897,1221.1
635.029,1240.2
635.161,1310.5
635.293,1449.5
635.425,1529.4
635.557,1527.5
635.689,1514.5
635.82,1475.8
635.952,1383.9
636.084,1280.9
636.216,1189.5
636.348,1133.4
636.48,1091.3
636.612,1065.3
636.744,1055.2
636.875,1037.0
637.007,1022.2
637.139,1013.9
637.271,1010.8
637.403,1006.0
637.535,1003.6
637.667,1005.7
637.798,998.4
637.93,993.7
638.062,992.6
638.194,991.7
638.326,987.6
638.458,989.9
638.589,986.3
638.721,985.3
638.853,988.4
638.985,984.8
639.117,988.7
639.248,985.5
639.38,986.8
639.512,986.4
639.644,990.7
639.776,999.2
639.907,1002.2
640.039,999.4
640.171,994.4
640.303,993.2
640.435,992.1
640.566,986.9
640.698,985.2
640.83,988.3
640.962,985.5
641.093,989.4
641.225,993.5
641.357,1003.3
641.489,1004.2
641.62,997.0
641.752,989.7
641.884,995.4
642.016,985.7
642.147,984.5
642.279,983.7
642.411,982.8
642.543,984.5
642.674,984.0
642.806,985.9
642.938,983.5
643.069,982.5
643.201,984.5
643.333,985.3
643.465,980.6
643.596,978.8
643.728,979.7
643.86,975.6
643.991,981.8
644.123,979.4
644.255,982.8
644.386,983.5
644.518,978.9
644.65,985.0
644.781,978.5
644.913,981.0
645.045,979.8
645.176,976.8
645.308,977.2
645.44,982.8
645.571,985.2
645.703,982.7
645.835,979.3
645.966,980.2
646.098,986.6
646.23,982.6
646.361,985.7
646.493,984.3
646.625,982.6
646.756,977.9
646.888,986.3
647.019,983.0
647.151,984.9
647.283,980.5
647.414,982.3
647.546,983.4
647.678,986.8
647.809,986.8
647.941,985.5
648.072,981.5
648.204,987.7
648.336,988.0
648.467,979.1
648.599,985.8
648.73,989.3
648.862,984.9
648.993,983.3
649.125,982.1
649.257,990.5
649.388,985.4
649.52,984.3
649.651,987.0
649.783,984.1
649.914,983.0
650.046,988.2
650.178,985.3
650.309,986.3
650.441,988.2
650.572,990.0
650.704,987.0
650.835,987.6
650.967,985.2
651.098,986.2
651.23,985.1
651.361,987.5
651.493,986.9
651.625,987.5
651.756,989.8
651.888,985.2
652.019,991.2
652.151,988.4
652.282,991.8
652.414,985.7
652.545,991.4
652.677,984.7
652.808,990.3
652.94,992.2
653.071,987.8
653.203,988.5
653.334,992.3
653.466,985.1
653.597,988.5
653.729,990.0
653.86,993.6
653.992,991.1
654.123,994.2
654.255,993.2
654.386,991.3
654.518,990.4
654.649,993.3
654.78,990.5
654.912,996.0
655.043,991.5
655.175,990.1
655.306,991.6
655.438,989.1
655.569,991.9
655.701,994.0
655.832,998.8
655.964,995.5
656.095,989.4
656.226,995.2
656.358,990.0
656.489,992.6
656.621,993.8
656.752,996.4
656.884,993.3
657.015,994.9
657.146,1000.5
657.278,994.8
657.409,999.1
657.541,991.0
657.672,993.4
657.804,993.4
657.935,995.0
658.066,994.9
658.198,991.9
658.329,1002.0
658.461,998.8
658.592,995.7
658.723,1000.1
658.855,994.9
658.986,994.3
659.118,994.8
659.249,997.7
659.38,999.9
659.512,992.1
659.643,995.1
659.774,995.5
659.906,1000.6
660.037,1000.5
660.169,1004.3
660.3,995.6
660.431,992.7
660.563,1003.5
660.694,995.6
660.825,1002.6
660.957,994.8
661.088,997.5
661.22,1003.2
661.351,998.6
661.482,996.8
661.614,996.4
661.745,995.7
661.876,997.2
662.008,996.7
662.139,1000.2
662.27,996.9
662.402,998.0
662.533,997.5
662.664,1000.3
662.796,1000.9
662.927,997.4
663.058,1000.2
