nm,Intensity
526.493,829.26
526.629,829.04
526.766,829.06
526.903,829.42
527.039,828.88
527.176,829.18
527.313,829.4
527.449,828.86
527.586,829.16
527.723,829.28
527.859,829.26
527.996,829.92
528.133,829.14
528.269,828.8
528.406,828.12
528.542,828.8
528.679,828.34
528.816,829.44
528.952,829.6
529.089,829.06
529.225,829.14
529.362,829.0
529.498,828.26
529.635,829.24
529.771,828.98
529.908,828.56
530.044,829.3
530.181,828.62
530.317,828.7
530.454,828.98
530.59,829.12
530.727,829.4
530.863,829.04
531.0,829.08
531.136,829.52
531.273,828.88
531.409,828.9
531.546,828.98
531.682,829.1
531.818,829.64
531.955,831.02
532.091,844.16
532.227,851.04
532.364,835.04
532.5,829.7
532.637,829.14
532.773,828.72
532.909,828.88
533.046,829.06
533.182,829.06
533.318,829.04
533.455,829.36
533.591,831.46
533.727,849.42
533.863,935.6
534.0,1078.9
534.136,1142.76
534.272,1138.48
534.408,1118.12
534.545,1102.72
534.681,1090.64
534.817,1074.0
534.953,1054.74
535.09,1038.36
535.226,1029.74
535.362,1020.94
535.498,1012.82
535.634,1005.48
535.771,1000.78
535.907,990.54
536.043,984.36
536.179,976.88
536.315,970.82
536.451,966.48
536.588,964.92
536.724,963.14
536.86,963.18
536.996,962.14
537.132,957.86
537.268,958.74
537.404,957.2
537.54,955.88
537.676,953.68
537.812,953.3
537.948,952.1
538.084,953.3
538.22,953.7
538.357,954.84
538.493,953.84
538.629,952.34
538.765,954.74
538.901,953.82
539.037,955.96
539.173,953.9
539.309,958.1
539.444,957.9
539.58,959.38
539.716,962.46
539.852,967.1
539.988,968.2
540.124,969.5
540.26,965.28
540.396,963.92
540.532,960.84
540.668,960.0
540.804,958.68
540.94,959.28
541.076,958.34
541.211,956.02
541.347,956.9
541.483,956.66
541.619,957.96
541.755,957.1
541.891,957.58
542.026,957.48
542.162,958.34
542.298,957.24
542.434,958.68
542.57,959.48
542.705,960.26
542.841,961.48
542.977,961.68
543.113,962.14
543.249,965.82
543.384,962.44
543.52,964.06
543.656,965.46
543.791,964.28
543.927,966.02
544.063,965.94
544.199,966.14
544.334,964.22
544.47,964.84
544.606,966.56
544.741,967.44
544.877,966.38
545.013,967.02
545.148,970.46
545.284,968.62
545.42,969.42
545.555,968.1
545.691,968.68
545.827,970.24
545.962,970.26
546.098,969.52
546.233,968.7
546.369,972.78
546.504,969.62
546.64,973.48
546.776,971.86
546.911,972.5
547.047,974.68
547.182,972.82
547.318,972.1
547.453,973.16
547.589,972.9
547.724,973.56
547.86,973.68
547.995,974.14
548.131,975.98
548.266,975.72
548.402,977.86
548.537,979.24
548.673,977.92
548.808,981.24
548.944,980.74
549.079,980.12
549.214,980.76
549.35,979.96
549.485,981.3
549.621,979.06
549.756,980.84
549.892,980.2
550.027,979.12
550.162,981.04
550.298,982.96
550.433,988.14
550.568,1015.46
550.704,1058.74
550.839,1026.16
550.974,990.5
551.11,986.46
551.245,984.9
551.38,986.08
551.516,985.0
551.651,985.3
551.786,986.3
551.922,988.8
552.057,985.74
552.192,989.9
552.327,988.84
552.463,989.1
552.598,989.86
552.733,999.78
552.868,1008.98
553.004,1003.36
553.139,993.9
553.274,992.06
553.409,989.9
553.544,992.58
553.68,992.6
553.815,993.62
553.95,991.32
554.085,991.64
554.22,993.2
554.356,993.6
554.491,993.56
554.626,994.16
554.761,994.44
554.896,993.82
555.031,997.2
555.166,999.12
555.301,1000.84
555.437,1002.98
555.572,1009.44
555.707,1014.12
555.842,1008.2
555.977,1008.7
556.112,1007.98
556.247,1010.94
556.382,1012.26
556.517,1011.42
556.652,1013.54
556.787,1013.64
556.922,1013.58
557.057,1019.06
557.192,1026.14
557.327,1040.42
557.462,1067.78
557.597,1102.28
557.732,1117.34
557.867,1072.2
558.002,1040.38
558.137,1022.76
558.272,1021.54
558.407,1017.46
558.542,1019.28
558.677,1013.86
558.812,1011.62
558.947,1012.88
559.082,1013.26
559.217,1011.86
559.351,1008.98
559.486,1009.36
559.621,1009.46
559.756,1008.84
559.891,1012.94
560.026,1011.94
560.161,1012.66
560.295,1010.42
560.43,1012.2
560.565,1013.28
560.7,1013.82
560.835,1014.18
560.97,1015.64
561.104,1018.52
561.239,1021.56
561.374,1019.68
561.509,1019.36
561.644,1023.32
561.778,1027.46
561.913,1034.3
562.048,1039.18
562.183,1040.7
562.317,1041.28
562.452,1034.38
562.587,1029.4
562.722,1025.6
562.856,1025.84
562.991,1025.7
563.126,1026.96
563.26,1026.84
563.395,1024.68
563.53,1026.56
563.665,1026.9
563.799,1029.02
563.934,1029.66
564.069,1032.62
564.203,1032.0
564.338,1035.9
564.472,1040.2
564.607,1045.2
564.742,1053.46
564.876,1065.38
565.011,1083.78
565.146,1099.46
565.28,1087.6
565.415,1071.08
565.549,1069.82
565.684,1071.18
565.818,1078.1
565.953,1076.06
566.088,1067.02
566.222,1058.08
566.357,1050.76
566.491,1045.4
566.626,1039.78
566.76,1038.58
566.895,1037.04
567.029,1035.46
567.164,1037.38
567.298,1036.7
567.433,1041.4
567.567,1052.02
567.702,1060.92
567.836,1060.78
567.971,1056.16
568.105,1052.42
568.24,1048.26
568.374,1044.7
568.509,1040.6
568.643,1043.02
568.777,1045.7
568.912,1042.36
569.046,1044.12
569.181,1041.56
569.315,1044.88
569.449,1043.06
569.584,1046.16
569.718,1047.52
569.853,1050.42
569.987,1051.86
570.121,1055.98
570.256,1058.88
570.39,1061.12
570.524,1071.56
570.659,1080.48
570.793,1091.96
570.927,1115.36
571.062,1142.6
571.196,1169.02
571.33,1193.14
571.465,1199.24
571.599,1179.12
571.733,1144.64
571.867,1119.36
572.002,1110.52
572.136,1097.54
572.27,1085.24
572.404,1070.82
572.539,1065.56
572.673,1063.66
572.807,1062.46
572.941,1060.08
573.076,1058.78
573.21,1059.04
573.344,1058.96
573.478,1060.22
573.612,1059.44
573.747,1058.8
573.881,1061.66
574.015,1063.38
574.149,1063.86
574.283,1061.56
574.417,1061.42
574.552,1061.66
574.686,1060.64
574.82,1059.02
574.954,1066.24
575.088,1065.22
575.222,1074.08
575.356,1080.94
575.491,1092.14
575.625,1091.64
575.759,1080.2
575.893,1071.54
576.027,1067.76
576.161,1069.5
576.295,1071.66
576.429,1071.48
576.563,1075.46
576.697,1079.5
576.831,1080.26
576.965,1080.78
577.099,1082.18
577.233,1081.0
577.367,1074.48
577.501,1071.86
577.635,1072.44
577.769,1067.24
577.903,1071.22
578.037,1069.54
578.171,1067.36
578.305,1069.4
578.439,1071.5
578.573,1069.5
578.707,1068.38
578.841,1068.44
578.975,1068.66
579.109,1068.68
579.243,1071.14
579.377,1071.62
579.511,1070.62
579.645,1071.56
579.779,1071.44
579.913,1070.72
580.046,1074.54
580.18,1072.78
580.314,1073.92
580.448,1074.24
580.582,1076.12
580.716,1078.6
580.85,1080.9
580.984,1085.2
581.117,1085.04
581.251,1084.74
581.385,1094.32
581.519,1098.7
581.653,1125.22
581.787,1177.4
581.92,1280.1
582.054,1480.5
582.188,1679.8
582.322,1592.4
582.456,1310.6
582.589,1168.6
582.723,1119.84
582.857,1103.98
582.991,1097.1
583.124,1090.78
583.258,1090.72
583.392,1086.8
583.526,1086.12
583.659,1086.9
583.793,1085.8
583.927,1082.86
584.061,1085.1
584.194,1085.44
584.328,1086.42
584.462,1087.22
584.595,1091.36
584.729,1091.14
584.863,1090.86
584.997,1091.7
585.13,1095.44
585.264,1103.9
585.398,1116.14
585.531,1147.3
585.665,1200.82
585.798,1268.7
585.932,1343.9
586.066,1381.8
586.199,1351.52
586.333,1298.28
586.467,1251.56
586.6,1202.24
586.734,1159.3
586.867,1128.68
587.001,1116.34
587.135,1108.14
587.268,1101.6
587.402,1096.82
587.535,1098.3
587.669,1094.46
587.802,1094.86
587.936,1094.72
588.07,1094.14
588.203,1092.02
588.337,1092.76
588.47,1091.3
588.604,1091.06
588.737,1093.16
588.871,1086.9
589.004,1089.0
589.138,1085.8
589.271,1093.8
589.405,1087.94
589.538,1089.84
589.672,1088.5
589.805,1090.32
589.939,1090.04
590.072,1088.96
590.206,1088.98
590.339,1090.2
590.472,1086.9
590.606,1090.18
590.739,1087.52
590.873,1090.28
591.006,1091.22
591.14,1093.78
591.273,1092.58
591.406,1091.08
591.54,1091.04
591.673,1088.32
591.807,1093.18
591.94,1089.62
592.073,1092.26
592.207,1091.18
592.34,1089.54
592.473,1090.58
592.607,1091.68
592.74,1089.1
592.873,1091.3
593.007,1090.76
593.14,1086.98
593.273,1089.32
593.407,1090.58
593.54,1091.88
593.673,1089.98
593.807,1090.74
593.94,1091.54
594.073,1093.72
594.207,1091.96
594.34,1095.86
594.473,1090.96
594.606,1092.78
594.74,1093.84
594.873,1093.76
595.006,1092.54
595.14,1094.34
595.273,1095.78
595.406,1097.16
595.539,1094.82
595.673,1096.36
595.806,1095.82
595.939,1096.52
596.072,1096.02
596.205,1098.66
596.339,1096.64
596.472,1096.36
596.605,1099.26
596.738,1096.02
596.871,1098.9
597.005,1099.56
597.138,1099.62
597.271,1099.26
597.404,1099.56
597.537,1098.2
597.67,1100.1
597.804,1096.98
597.937,1099.9
598.07,1099.58
598.203,1104.12
598.336,1100.36
598.469,1103.0
598.602,1102.82
598.735,1104.66
598.869,1104.98
599.002,1106.14
599.135,1105.22
599.268,1103.88
599.401,1102.94
599.534,1104.26
599.667,1106.36
599.8,1104.68
599.933,1103.02
600.066,1105.96
600.199,1104.1
600.332,1102.86
600.465,1102.4
600.598,1103.46
600.731,1104.42
600.865,1101.68
600.998,1104.78
601.131,1100.84
601.264,1103.36
601.397,1102.66
601.53,1104.28
601.663,1103.22
601.796,1103.58
601.929,1099.84
602.062,1102.42
602.195,1103.5
602.328,1103.96
602.46,1105.14
602.593,1105.42
602.726,1105.32
602.859,1106.28
602.992,1108.16
603.125,1108.22
603.258,1110.32
603.391,1107.94
603.524,1107.34
603.657,1109.7
603.79,1113.32
603.923,1109.44
604.056,1110.64
604.189,1109.8
604.322,1108.68
604.454,1105.86
604.587,1107.04
604.72,1110.02
604.853,1107.9
604.986,1109.68
605.119,1107.24
605.252,1106.48
605.385,1106.24
605.517,1105.54
605.65,1106.86
605.783,1104.48
605.916,1106.6
606.049,1104.2
606.182,1104.9
606.315,1104.6
606.447,1108.3
606.58,1107.72
606.713,1106.0
606.846,1107.16
606.979,1106.98
607.111,1107.54
607.244,1107.52
607.377,1110.68
607.51,1112.5
607.643,1110.7
607.775,1111.52
607.908,1112.82
608.041,1114.06
608.174,1116.56
608.306,1115.06
608.439,1116.62
608.572,1115.68
608.705,1117.76
608.837,1119.76
608.97,1118.76
609.103,1121.16
609.236,1118.32
609.368,1117.98
609.501,1119.26
609.634,1121.84
609.766,1120.22
609.899,1120.66
610.032,1121.56
610.164,1120.5
610.297,1123.44
610.43,1123.48
610.563,1120.16
610.695,1121.24
610.828,1122.76
610.961,1125.02
611.093,1123.42
611.226,1124.5
611.359,1123.66
611.491,1124.94
611.624,1127.06
611.756,1132.26
611.889,1128.46
612.022,1130.42
612.154,1133.78
612.287,1132.72
612.42,1135.86
612.552,1136.18
612.685,1135.74
612.817,1137.6
612.95,1143.02
613.083,1139.14
613.215,1142.98
613.348,1144.62
613.48,1143.94
613.613,1143.76
613.745,1145.04
613.878,1147.66
614.011,1148.48
614.143,1145.08
614.276,1149.92
614.408,1153.74
614.541,1147.5
614.673,1152.76
614.806,1154.56
614.938,1153.44
615.071,1151.94
615.203,1150.36
615.336,1155.82
615.469,1154.78
615.601,1153.42
615.734,1154.56
615.866,1155.04
615.999,1153.72
616.131,1154.62
616.263,1157.7
616.396,1155.6
616.528,1161.12
616.661,1157.44
616.793,1158.24
616.926,1165.76
617.058,1163.76
617.191,1165.04
617.323,1167.0
617.456,1167.94
617.588,1167.9
617.721,1166.32
617.853,1167.96
617.985,1172.5
618.118,1172.56
618.25,1176.42
618.383,1176.44
618.515,1177.34
618.648,1174.02
618.78,1177.22
618.912,1174.12
619.045,1176.6
619.177,1177.46
619.31,1175.34
619.442,1176.82
619.574,1175.76
619.707,1180.48
619.839,1176.26
619.971,1174.28
620.104,1177.92
620.236,1181.1
620.369,1179.28
620.501,1179.16
620.633,1181.88
620.766,1179.88
620.898,1178.36
621.03,1181.54
621.163,1182.88
621.295,1181.36
621.427,1184.2
621.56,1185.46
621.692,1184.1
621.824,1188.3
621.957,1185.56
622.089,1189.04
622.221,1188.86
622.353,1187.6
622.486,1191.52
622.618,1194.12
622.75,1195.24
622.883,1191.86
623.015,1195.16
623.147,1198.48
623.279,1199.98
623.412,1200.04
623.544,1202.94
623.676,1204.78
623.808,1204.94
623.941,1202.02
624.073,1206.22
624.205,1209.52
624.337,1202.94
624.47,1208.04
624.602,1210.68
624.734,1212.46
624.866,1211.34
624.999,1214.3
625.131,1214.2
625.263,1213.56
625.395,1212.44
625.527,1216.48
625.66,1217.12
625.792,1214.74
625.924,1213.46
626.056,1216.9
626.188,1214.52
626.321,1215.04
626.453,1216.48
626.585,1220.48
626.717,1217.36
626.849,1220.44
626.981,1219.12
627.114,1222.82
627.246,1221.52
627.378,1222.94
627.51,1220.06
627.642,1222.28
627.774,1220.12
627.906,1221.24
628.039,1227.96
628.171,1223.86
628.303,1227.76
628.435,1229.2
628.567,1233.04
628.699,1233.22
628.831,1232.66
628.963,1234.9
629.095,1237.82
629.228,1238.42
629.36,1243.74
629.492,1243.2
629.624,1247.36
629.756,1248.64
629.888,1252.1
630.02,1245.22
630.152,1246.84
630.284,1245.06
630.416,1244.72
630.548,1251.48
630.68,1244.12
630.813,1250.82
630.945,1253.44
631.077,1256.02
631.209,1259.64
631.341,1268.72
631.473,1270.64
631.605,1275.36
631.737,1281.7
631.869,1284.1
632.001,1286.32
632.133,1290.38
632.265,1287.44
632.397,1278.5
632.529,1274.44
632.661,1279.14
632.793,1272.32
632.925,1270.24
633.057,1270.98
633.189,1269.5
633.321,1269.4
633.453,1268.38
633.585,1270.82
633.717,1268.62
633.849,1264.98
633.981,1262.32
634.113,1261.2
634.245,1259.86
634.377,1259.7
634.509,1261.24
634.641,1256.2
634.773,1258.6
634.905,1261.08
635.036,1258.76
635.168,1261.3
635.3,1266.06
635.432,1266.92
635.564,1266.96
635.696,1277.0
635.828,1283.56
635.96,1292.32
636.092,1302.06
636.224,1311.16
636.356,1318.74
636.488,1334.44
636.62,1340.92
636.751,1330.74
636.883,1319.76
637.015,1306.92
637.147,1293.04
637.279,1287.1
637.411,1280.2
637.543,1283.24
637.675,1281.0
637.807,1275.18
637.938,1278.64
638.07,1279.26
638.202,1274.74
638.334,1275.96
638.466,1277.4
638.598,1273.62
638.73,1275.84
638.862,1275.44
638.993,1279.7
639.125,1282.82
639.257,1282.08
639.389,1279.44
639.521,1281.64
639.653,1277.46
639.784,1281.3
639.916,1281.94
640.048,1280.88
640.18,1278.56
640.312,1280.36
640.443,1282.08
640.575,1279.6
640.707,1283.3
640.839,1285.52
640.971,1282.6
641.103,1285.04
641.234,1285.36
641.366,1284.6
641.498,1288.08
641.63,1286.9
641.761,1290.22
641.893,1289.24
642.025,1288.06
642.157,1293.0
642.289,1288.96
642.42,1292.88
642.552,1291.38
642.684,1289.56
642.816,1289.56
642.947,1288.96
643.079,1288.42
643.211,1286.66
643.343,1283.24
643.474,1283.98
643.606,1283.78
643.738,1284.64
643.87,1284.72
644.001,1279.6
644.133,1285.02
644.265,1284.52
644.397,1286.06
644.528,1282.6
644.66,1280.94
644.792,1283.4
644.923,1282.18
645.055,1284.64
645.187,1281.44
645.319,1280.1
645.45,1280.88
645.582,1284.4
645.714,1285.34
645.845,1285.24
645.977,1284.5
646.109,1283.64
646.24,1283.96
646.372,1285.1
646.504,1285.44
646.635,1287.76
646.767,1289.8
646.899,1286.1
647.03,1289.38
647.162,1289.5
647.294,1286.82
647.425,1292.98
647.557,1292.48
647.689,1293.46
647.82,1291.06
647.952,1290.82
648.084,1291.98
648.215,1286.88
648.347,1285.46
648.479,1287.6
648.61,1290.14
648.742,1289.5
648.874,1289.68
649.005,1287.82
649.137,1285.0
649.268,1285.98
649.4,1288.52
649.532,1285.56
649.663,1288.44
649.795,1290.72
649.927,1289.28
650.058,1286.92
650.19,1286.6
650.321,1290.54
650.453,1288.36
650.585,1287.62
650.716,1286.76
650.848,1284.64
650.979,1285.54
651.111,1287.66
651.243,1286.42
651.374,1290.3
651.506,1290.06
651.637,1291.92
651.769,1292.28
651.9,1290.78
652.032,1289.54
652.164,1288.36
652.295,1290.0
652.427,1291.9
652.558,1291.82
652.69,1291.44
652.821,1292.92
652.953,1292.44
653.084,1292.04
653.216,1291.8
653.348,1290.34
653.479,1289.22
653.611,1298.22
653.742,1296.56
653.874,1291.68
654.005,1295.02
654.137,1296.3
654.268,1290.62
654.4,1293.76
654.531,1293.42
654.663,1294.78
654.794,1292.22
654.926,1296.96
655.057,1292.56
655.189,1296.0
655.32,1290.88
655.452,1292.72
655.583,1295.34
655.715,1294.0
655.846,1291.68
655.978,1289.98
656.109,1291.72
656.241,1292.72
656.372,1294.2
656.504,1298.6
656.635,1292.14
656.767,1295.8
656.898,1294.98
657.03,1296.06
657.161,1294.98
657.293,1295.2
657.424,1296.82
657.556,1298.24
657.687,1295.8
657.819,1298.1
657.95,1293.36
658.082,1299.18
658.213,1299.46
658.345,1299.76
658.476,1300.26
658.607,1301.14
658.739,1297.04
658.87,1295.22
659.002,1295.44
659.133,1296.8
659.265,1302.76
659.396,1299.62
659.528,1297.38
659.659,1297.1
659.79,1297.84
659.922,1301.54
660.053,1299.4
660.185,1297.84
660.316,1292.3
660.448,1300.4
660.579,1294.98
660.71,1295.08
660.842,1294.9
660.973,1292.08
661.105,1294.8
661.236,1290.62
661.367,1295.18
661.499,1292.98
661.63,1292.4
661.762,1292.64
661.893,1291.64
662.024,1288.78
662.156,1288.18
662.287,1288.12
662.419,1290.6
662.55,1289.68
662.681,1290.4
662.813,1289.52
662.944,1284.26
663.076,1287.72
