nm,Intensity
791.588,4645.3
791.862,4638.4
792.136,4612.9
792.411,4572.9
792.685,4552.5
792.959,4524.9
793.233,4509.9
793.507,4503.3
793.781,4509.5
794.056,4517.6
794.33,4506.5
794.604,4479.3
794.878,4510.2
795.152,4512.0
795.426,4508.9
795.701,4514.0
795.975,4500.2
796.249,4508.2
796.523,4503.8
796.797,4498.5
797.071,4484.7
797.345,4475.3
797.619,4486.4
797.894,4463.1
798.168,4465.7
798.442,4475.8
798.716,4462.5
798.99,4468.0
799.264,4472.5
799.538,4452.1
799.812,4475.6
800.086,4449.3
800.36,4467.7
800.634,4488.5
800.908,4461.1
801.182,4458.8
801.456,4454.5
801.73,4438.9
802.004,4434.9
802.278,4425.9
802.552,4434.6
802.826,4418.4
803.1,4415.7
803.374,4421.4
803.648,4420.0
803.922,4410.1
804.196,4407.7
804.47,4411.0
804.744,4418.1
805.018,4417.0
805.292,4422.9
805.566,4438.5
805.84,4414.6
806.114,4406.2
806.388,4394.9
806.662,4392.7
806.936,4394.5
807.209,4379.9
807.483,4380.6
807.757,4396.8
808.031,4388.7
808.305,4391.0
808.579,4397.7
808.853,4389.7
809.127,4398.3
809.4,4388.8
809.674,4411.8
809.948,4434.1
810.222,4471.3
810.496,4485.9
810.77,4459.1
811.043,4418.6
811.317,4403.0
811.591,4383.7
811.865,4375.4
812.139,4382.9
812.412,4381.3
812.686,4375.0
812.96,4366.9
813.234,4374.3
813.507,4382.8
813.781,4379.0
814.055,4384.0
814.329,4389.4
814.602,4369.7
814.876,4362.5
815.15,4339.6
815.424,4327.3
815.697,4331.8
815.971,4320.3
816.245,4315.5
816.518,4318.5
816.792,4331.2
817.066,4310.2
817.34,4314.6
817.613,4313.5
817.887,4314.0
818.161,4306.6
818.434,4318.3
818.708,4321.8
818.981,4331.9
819.255,4316.4
819.529,4310.7
819.802,4302.9
820.076,4309.9
820.35,4292.3
820.623,4288.7
820.897,4287.0
821.17,4284.6
821.444,4269.7
821.718,4283.6
821.991,4268.3
822.265,4275.3
822.538,4281.5
822.812,4271.4
823.085,4263.1
823.359,4261.8
823.632,4257.3
823.906,4280.9
824.18,4276.9
824.453,4258.1
824.727,4275.2
825.0,4265.5
825.274,4258.5
825.547,4252.6
825.821,4240.4
826.094,4254.4
826.367,4250.3
826.641,4260.4
826.914,4240.0
827.188,4233.8
827.461,4229.9
827.735,4230.9
828.008,4230.8
828.282,4229.1
828.555,4233.3
828.828,4229.0
829.102,4229.5
829.375,4223.1
829.649,4232.3
829.922,4217.8
830.195,4207.8
830.469,4211.7
830.742,4217.6
831.016,4224.5
831.289,4222.2
831.562,4214.0
831.836,4213.4
832.109,4205.9
832.382,4201.1
832.656,4203.4
832.929,4202.1
833.202,4213.3
833.476,4209.6
833.749,4200.6
834.022,4214.3
834.295,4208.9
834.569,4204.1
834.842,4191.2
835.115,4204.4
835.388,4206.9
835.662,4205.6
835.935,4198.6
836.208,4205.0
836.481,4199.3
836.755,4205.2
837.028,4228.1
837.301,4242.0
837.574,4288.2
837.848,4331.7
838.121,4350.9
838.394,4327.0
838.667,4287.6
838.94,4250.4
839.213,4241.3
839.487,4246.5
839.76,4252.3
840.033,4276.1
840.306,4277.1
840.579,4266.8
840.852,4245.9
841.125,4234.4
841.399,4202.4
841.672,4199.5
841.945,4193.0
842.218,4187.1
842.491,4167.7
842.764,4177.5
843.037,4191.0
843.31,4175.4
843.583,4164.5
843.856,4180.3
844.129,4162.2
844.402,4180.9
844.675,4170.9
844.948,4182.9
845.221,4173.4
845.495,4173.2
845.768,4176.8
846.041,4155.0
846.314,4162.9
846.586,4160.8
846.859,4170.2
847.132,4174.6
847.405,4178.0
847.678,4178.0
847.951,4172.7
848.224,4163.8
848.497,4160.1
848.77,4174.9
849.043,4185.8
849.316,4195.4
849.589,4209.6
849.862,4207.2
850.135,4201.2
850.408,4176.4
850.681,4175.3
850.953,4174.6
851.226,4175.3
851.499,4188.8
851.772,4181.5
852.045,4180.1
852.318,4185.3
852.591,4161.9
852.863,4161.8
853.136,4163.2
853.409,4155.1
853.682,4155.1
853.955,4161.2
854.227,4173.4
854.5,4186.4
854.773,4174.6
855.046,4159.6
855.318,4162.6
855.591,4157.2
855.864,4156.6
856.137,4159.6
856.409,4149.3
856.682,4146.3
856.955,4143.5
857.228,4139.2
857.5,4136.8
857.773,4141.3
858.046,4142.1
858.318,4139.9
858.591,4145.3
858.864,4140.0
859.137,4152.5
859.409,4131.0
859.682,4125.3
859.954,4128.2
860.227,4133.9
860.5,4131.4
860.772,4138.2
861.045,4142.7
861.318,4147.5
861.59,4143.6
861.863,4157.9
862.135,4166.1
862.408,4183.7
862.681,4203.3
862.953,4190.3
863.226,4199.0
863.498,4205.9
863.771,4208.2
864.043,4186.7
864.316,4192.1
864.588,4162.0
864.861,4155.1
865.133,4141.9
865.406,4135.6
865.678,4124.4
865.951,4116.6
866.223,4120.5
866.496,4127.3
866.768,4123.7
867.041,4123.3
867.313,4142.9
867.586,4149.6
867.858,4154.2
868.131,4134.6
868.403,4127.1
868.675,4114.9
868.948,4117.6
869.22,4120.0
869.493,4117.0
869.765,4121.0
870.037,4111.3
870.31,4110.7
870.582,4116.5
870.854,4110.6
871.127,4109.1
871.399,4116.8
871.672,4109.1
871.944,4117.4
872.216,4121.3
872.488,4108.6
872.761,4111.9
873.033,4113.3
873.305,4133.5
873.578,4138.6
873.85,4130.5
874.122,4138.2
874.394,4144.4
874.667,4125.5
874.939,4126.9
875.211,4140.2
875.483,4146.0
875.756,4165.7
876.028,4167.5
876.3,4175.0
876.572,4161.8
876.845,4156.1
877.117,4150.1
877.389,4148.0
877.661,4117.4
877.933,4118.1
878.205,4110.3
878.478,4118.0
878.75,4110.1
879.022,4111.0
879.294,4121.0
879.566,4107.6
879.838,4095.5
880.11,4087.9
880.382,4077.2
880.654,4078.9
880.927,4066.8
881.199,4061.8
881.471,4066.5
881.743,4061.3
882.015,4060.3
882.287,4062.9
882.559,4073.8
882.831,4060.4
883.103,4069.8
883.375,4071.5
883.647,4089.0
883.919,4091.2
884.191,4096.0
884.463,4104.1
884.735,4113.6
885.007,4118.0
885.279,4136.4
885.551,4157.5
885.823,4163.3
886.095,4163.1
886.367,4157.8
886.639,4147.6
886.91,4119.2
887.182,4099.4
887.454,4089.0
887.726,4076.1
887.998,4066.8
888.27,4046.9
888.542,4032.6
888.814,4037.8
889.085,4028.4
889.357,4030.3
889.629,4030.2
889.901,4025.3
890.173,4018.6
890.445,4021.9
890.716,4021.8
890.988,4017.4
891.26,4025.4
891.532,4017.1
891.804,4016.5
892.075,4019.9
892.347,4019.1
892.619,4020.2
892.891,4015.6
893.162,4017.8
893.434,4015.2
893.706,4007.2
893.978,4000.7
894.249,4003.2
894.521,4006.2
894.793,3996.9
895.064,3997.0
895.336,4005.4
895.608,4001.5
895.879,3995.1
896.151,3997.3
896.423,3997.1
896.694,3998.0
896.966,3989.8
897.237,3993.0
897.509,3988.9
897.781,3994.2
898.052,3982.1
898.324,3985.4
898.595,3981.6
898.867,3983.5
899.139,3983.9
899.41,3977.0
899.682,3983.0
899.953,3976.5
900.225,3973.7
900.496,3969.2
900.768,3974.1
901.039,3970.8
901.311,3965.2
901.582,3962.9
901.854,3963.5
902.125,3965.7
902.397,3956.0
902.668,3959.7
902.94,3961.7
903.211,3959.3
903.482,3956.6
903.754,3955.2
904.025,3958.6
904.297,3952.6
904.568,3947.8
904.839,3948.0
905.111,3951.7
905.382,3946.3
905.654,3949.3
905.925,3942.9
906.196,3950.8
906.468,3938.5
906.739,3943.0
907.01,3942.1
907.282,3933.8
907.553,3932.8
907.824,3931.2
908.096,3933.4
908.367,3936.6
908.638,3931.3
908.909,3931.8
909.181,3933.0
909.452,3932.9
909.723,3927.8
909.994,3926.2
910.266,3927.4
910.537,3926.3
910.808,3928.6
911.079,3928.0
911.35,3925.7
911.622,3923.5
911.893,3918.7
912.164,3917.7
912.435,3912.6
912.706,3917.8
912.977,3919.0
913.249,3916.3
913.52,3915.3
913.791,3914.0
914.062,3913.2
914.333,3914.2
914.604,3911.1
914.875,3911.7
915.146,3913.2
915.417,3913.3
915.688,3906.5
915.959,3906.1
916.231,3902.1
916.502,3911.5
916.773,3904.1
917.044,3903.1
917.315,3905.6
917.586,3903.4
917.857,3900.0
918.128,3903.0
918.399,3897.2
918.67,3897.2
918.941,3899.2
919.211,3895.1
919.482,3896.7
919.753,3897.1
920.024,3891.4
920.295,3892.7
920.566,3893.9
920.837,3897.5
921.108,3889.2
921.379,3892.0
921.65,3892.5
921.921,3886.5
922.191,3887.5
922.462,3887.1
922.733,3887.2
923.004,3884.2
923.275,3883.2
923.546,3884.4
923.816,3884.5
924.087,3880.0
924.358,3885.0
924.629,3882.1
924.9,3874.0
925.17,3877.5
925.441,3877.9
925.712,3875.7
925.983,3877.4
926.253,3877.1
926.524,3872.1
926.795,3874.3
927.065,3872.9
927.336,3871.9
927.607,3870.1
927.877,3875.3
928.148,3868.1
928.419,3866.3
928.689,3862.3
928.96,3866.9
929.231,3861.5
929.501,3860.2
929.772,3863.0
930.043,3865.1
930.313,3859.8
930.584,3857.7
930.854,3853.4
931.125,3857.4
931.396,3856.4
931.666,3854.6
931.937,3859.6
932.207,3859.8
932.478,3857.1
932.748,3849.9
933.019,3851.4
933.289,3854.0
933.56,3852.2
933.83,3847.0
934.101,3850.8
934.371,3849.8
934.642,3848.2
934.912,3846.0
935.183,3845.8
935.453,3847.7
935.723,3843.2
935.994,3846.3
936.264,3839.1
936.535,3841.9
936.805,3843.9
937.075,3840.9
937.346,3837.6
937.616,3836.6
937.886,3841.4
938.157,3835.6
938.427,3842.1
938.697,3833.7
938.968,3836.6
939.238,3839.4
939.508,3833.4
939.779,3838.4
940.049,3831.7
940.319,3838.7
940.59,3835.4
940.86,3833.2
941.13,3830.1
941.4,3830.2
941.671,3830.3
941.941,3831.5
942.211,3830.1
942.481,3825.9
942.751,3828.4
943.022,3829.1
943.292,3825.0
943.562,3829.1
943.832,3826.7
944.102,3829.7
944.372,3825.4
944.642,3825.0
944.913,3825.6
945.183,3823.4
945.453,3822.1
945.723,3824.9
945.993,3822.4
946.263,3821.8
946.533,3821.4
946.803,3822.0
947.073,3818.6
947.343,3821.2
947.613,3818.9
947.883,3821.4
948.153,3813.7
948.423,3819.5
948.693,3819.7
948.963,3820.6
949.233,3816.8
949.503,3816.8
949.773,3815.7
950.043,3814.8
950.313,3816.3
950.583,3815.4
950.853,3816.6
951.123,3812.5
951.393,3813.4
951.663,3810.5
951.933,3815.8
952.202,3813.8
952.472,3813.6
952.742,3808.3
953.012,3811.1
953.282,3807.5
953.552,3810.9
953.822,3808.1
954.091,3804.6
954.361,3809.5
954.631,3807.9
954.901,3808.5
955.17,3808.6
955.44,3806.6
955.71,3808.4
955.98,3808.8
956.25,3802.3
956.519,3805.4
956.789,3805.5
957.059,3805.2
957.328,3801.4
957.598,3804.4
957.868,3804.0
958.137,3804.9
958.407,3803.4
958.677,3801.6
958.946,3799.4
959.216,3800.6
959.486,3803.7
959.755,3803.8
960.025,3800.9
960.294,3799.2
960.564,3802.0
960.834,3797.1
961.103,3799.5
961.373,3799.0
961.642,3797.7
961.912,3795.3
962.181,3798.0
962.451,3795.7
962.72,3801.8
962.99,3796.2
963.259,3800.4
963.529,3797.2
963.798,3798.7
964.068,3795.5
964.337,3798.5
964.607,3797.9
964.876,3794.9
965.146,3789.7
965.415,3793.4
965.684,3792.5
965.954,3795.4
966.223,3792.4
966.493,3793.4
966.762,3793.8
967.031,3791.9
967.301,3795.8
967.57,3791.5
967.839,3790.6
968.109,3790.3
968.378,3792.0
968.647,3791.0
968.917,3789.9
969.186,3790.3
969.455,3789.2
969.724,3788.9
969.994,3790.7
970.263,3788.9
970.532,3791.8
970.801,3790.6
971.071,3789.8
971.34,3790.2
971.609,3788.0
971.878,3788.1
972.147,3790.7
972.417,3787.9
972.686,3786.4
972.955,3788.9
973.224,3786.6
973.493,3785.8
973.762,3784.9
974.031,3786.0
974.3,3783.6
974.57,3783.7
974.839,3785.7
975.108,3784.3
975.377,3785.3
975.646,3784.0
975.915,3785.1
976.184,3782.9
976.453,3784.7
976.722,3785.0
976.991,3782.9
977.26,3782.0
977.529,3784.6
977.798,3782.6
978.067,3782.3
978.336,3783.5
978.605,3783.6
978.874,3782.5
979.143,3778.9
979.412,3782.7
979.68,3783.3
979.949,3781.0
980.218,3778.0
980.487,3779.0
980.756,3781.9
981.025,3782.9
981.294,3782.3
981.563,3779.5
981.831,3780.3
982.1,3782.0
982.369,3779.0
982.638,3778.6
982.907,3779.7
983.175,3778.5
983.444,3783.0
983.713,3783.1
983.982,3780.1
984.25,3782.3
984.519,3779.9
984.788,3779.6
985.057,3779.2
985.325,3777.7
985.594,3780.3
985.863,3779.7
986.131,3777.4
986.4,3777.4
986.669,3777.1
986.937,3774.7
987.206,3779.0
987.475,3774.2
987.743,3777.8
988.012,3777.1
988.28,3775.8
988.549,3773.9
988.817,3774.7
989.086,3778.8
989.355,3776.6
989.623,3778.2
989.892,3776.0
990.16,3774.4
990.429,3779.5
990.697,3777.2
990.966,3776.3
991.234,3775.6
991.503,3776.7
991.771,3773.5
992.04,3772.9
992.308,3773.4
992.576,3772.3
992.845,3775.4
993.113,3774.7
993.382,3775.1
993.65,3775.4
993.918,3777.0
994.187,3775.5
994.455,3773.9
994.723,3773.1
994.992,3772.6
995.26,3774.2
995.528,3772.1
995.797,3774.0
996.065,3772.4
996.333,3772.3
996.602,3771.6
996.87,3775.9
997.138,3776.9
997.406,3775.3
997.675,3775.5
997.943,3775.6
998.211,3774.5
998.479,3775.7
998.747,3773.7
999.016,3770.2
999.284,3772.6
999.552,3774.9
999.82,3773.9
1000.09,3773.9
1000.36,3774.3
1000.62,3773.8
1000.89,3771.4
1001.16,3774.9
1001.43,3771.2
1001.7,3769.4
1001.97,3771.4
1002.23,3771.2
1002.5,3767.4
1002.77,3769.2
1003.04,3766.6
1003.31,3767.7
1003.57,3770.2
1003.84,3767.7
1004.11,3768.2
1004.38,3768.0
1004.65,3769.8
1004.91,3769.2
1005.18,3767.7
1005.45,3769.6
1005.72,3765.8
1005.98,3768.4
1006.25,3768.8
1006.52,3770.9
1006.79,3768.0
1007.06,3768.9
1007.32,3771.7
1007.59,3769.2
1007.86,3770.2
1008.13,3771.4
1008.4,3772.1
1008.66,3772.9
1008.93,3777.0
1009.2,3777.8
1009.47,3780.9
1009.73,3784.2
1010.0,3782.4
1010.27,3785.2
1010.54,3785.2
1010.81,3785.3
1011.07,3785.7
1011.34,3788.0
1011.61,3793.4
1011.88,3795.1
1012.14,3793.0
1012.41,3793.3
1012.68,3794.8
1012.95,3798.1
1013.21,3801.9
1013.48,3799.7
1013.75,3802.5
1014.02,3804.5
1014.29,3805.1
1014.55,3806.5
1014.82,3806.7
1015.09,3806.3
1015.36,3804.6
1015.62,3802.9
1015.89,3803.9
1016.16,3802.1
1016.43,3797.2
1016.69,3797.1
1016.96,3796.7
1017.23,3793.0
1017.5,3793.0
1017.76,3789.5
1018.03,3791.5
1018.3,3790.3
1018.57,3786.3
1018.83,3785.0
1019.1,3784.4
1019.37,3781.0
1019.63,3779.9
1019.9,3782.4
1020.17,3781.4
1020.44,3779.7
1020.7,3780.5
1020.97,3778.2
1021.24,3779.7
1021.51,3775.7
1021.77,3778.7
1022.04,3774.6
1022.31,3779.6
1022.58,3779.3
1022.84,3774.7
1023.11,3777.8
1023.38,3776.1
1023.64,3773.7
1023.91,3771.7
1024.18,3771.2
1024.45,3768.0
1024.71,3765.5
1024.98,3764.6
1025.25,3765.1
1025.51,3763.5
1025.78,3762.4
1026.05,3766.3
1026.32,3760.8
1026.58,3760.8
1026.85,3759.7
1027.12,3758.5
1027.38,3761.7
1027.65,3759.4
1027.92,3760.3
1028.19,3759.7
1028.45,3760.8
1028.72,3758.8
1028.99,3758.8
1029.25,3759.2
1029.52,3760.4
1029.79,3759.6
1030.05,3758.8
1030.32,3758.6
1030.59,3760.2
1030.85,3759.1
1031.12,3761.9
1031.39,3758.5
1031.66,3759.6
1031.92,3760.3
1032.19,3759.4
1032.46,3759.1
1032.72,3759.5
1032.99,3760.3
1033.26,3755.8
1033.52,3758.5
1033.79,3759.2
1034.06,3759.2
1034.32,3760.1
1034.59,3758.3
1034.86,3758.1
1035.12,3757.7
1035.39,3758.8
1035.66,3757.6
1035.92,3758.6
1036.19,3757.9
1036.46,3759.4
1036.72,3758.5
1036.99,3759.4
1037.26,3755.8
1037.52,3756.4
1037.79,3757.8
1038.06,3756.5
1038.32,3757.5
1038.59,3759.6
1038.86,3758.0
1039.12,3757.8
1039.39,3757.1
1039.66,3756.7
1039.92,3756.9
1040.19,3757.0
1040.46,3759.7
1040.72,3757.9
1040.99,3758.7
1041.26,3755.9
1041.52,3754.9
1041.79,3756.9
1042.06,3757.4
1042.32,3757.9
1042.59,3757.4
1042.86,3756.8
1043.12,3756.2
1043.39,3756.6
1043.65,3758.0
1043.92,3757.3
1044.19,3757.9
1044.45,3756.7
1044.72,3756.8
1044.99,3757.4
1045.25,3757.9
1045.52,3756.3
1045.79,3754.9
1046.05,3757.2
1046.32,3757.9
1046.58,3756.0
1046.85,3758.0
1047.12,3756.8
1047.38,3759.0
1047.65,3755.7
1047.92,3754.9
1048.18,3758.9
1048.45,3755.9
1048.71,3757.1
1048.98,3759.0
1049.25,3758.0
1049.51,3757.2
1049.78,3757.5
1050.04,3755.6
1050.31,3755.7
1050.58,3757.0
1050.84,3754.6
1051.11,3755.3
1051.37,3755.2
1051.64,3757.3
1051.91,3758.7
1052.17,3756.7
1052.44,3756.5
1052.7,3755.6
1052.97,3755.8
1053.24,3755.4
1053.5,3755.3
1053.77,3755.2
1054.03,3756.7
1054.3,3755.9
1054.57,3754.3
1054.83,3755.6
1055.1,3755.5
1055.36,3755.2
1055.63,3756.3
1055.9,3756.3
1056.16,3757.1
1056.43,3756.1
1056.69,3756.0
1056.96,3757.3
1057.23,3756.9
1057.49,3754.7
1057.76,3755.3
1058.02,3755.6
1058.29,3755.1
1058.55,3754.8
1058.82,3756.3
1059.09,3754.1
1059.35,3754.9
1059.62,3754.5
1059.88,3756.3
1060.15,3754.7
1060.41,3755.5
1060.68,3754.4
1060.95,3756.2
1061.21,3756.0
1061.48,3755.6
1061.74,3755.7
1062.01,3755.7
1062.27,3754.6
1062.54,3754.0
1062.8,3756.6
1063.07,3755.0
1063.34,3753.6
1063.6,3756.3
1063.87,3753.8
1064.13,3752.3
1064.4,3754.4
1064.66,3755.2
1064.93,3754.7
1065.19,3754.6
1065.46,3754.3
1065.73,3755.7
1065.99,3754.5
1066.26,3755.1
1066.52,3753.5
1066.79,3755.6
1067.05,3754.2
1067.32,3753.2
1067.58,3753.1
1067.85,3753.6
1068.11,3754.7
