nm,Intensity
526.5,828.7
526.637,829.5
526.774,828.5
526.91,828.8
527.047,827.8
527.184,829.0
527.32,828.9
527.457,829.4
527.594,828.7
527.73,829.3
527.867,829.2
528.004,829.4
528.14,829.3
528.277,827.8
528.414,827.8
528.55,829.6
528.687,827.5
528.823,828.5
528.96,828.9
529.096,828.3
529.233,828.0
529.37,830.1
529.506,827.9
529.643,828.2
529.779,828.1
529.916,828.3
530.052,828.9
530.189,828.9
530.325,828.4
530.462,828.3
530.598,828.7
530.735,830.0
530.871,828.7
531.008,828.2
531.144,828.7
531.28,829.7
531.417,827.9
531.553,829.1
531.69,829.3
531.826,828.7
531.962,836.7
532.099,900.5
532.235,917.6
532.372,848.9
532.508,830.8
532.644,830.0
532.781,828.3
532.917,829.7
533.053,829.6
533.19,828.8
533.326,829.5
533.462,830.4
533.599,841.0
533.735,926.1
533.871,1324.4
534.007,1959.0
534.144,2248.9
534.28,2218.4
534.416,2110.7
534.552,2004.0
534.689,1895.3
534.825,1791.8
534.961,1653.8
535.097,1522.1
535.234,1412.4
535.37,1313.6
535.506,1254.6
535.642,1191.0
535.778,1134.3
535.914,1099.9
536.051,1073.6
536.187,1047.6
536.323,1020.7
536.459,1013.3
536.595,1001.7
536.731,995.8
536.867,993.1
537.003,983.7
537.14,978.6
537.276,976.2
537.412,970.9
537.548,965.8
537.684,965.8
537.82,964.3
537.956,972.0
538.092,970.2
538.228,983.7
538.364,988.0
538.5,994.4
538.636,983.4
538.772,974.0
538.908,959.7
539.044,934.6
539.18,918.4
539.316,907.1
539.452,898.9
539.588,897.5
539.724,891.8
539.86,892.6
539.996,895.6
540.132,891.0
540.268,888.6
540.403,886.9
540.539,885.3
540.675,883.8
540.811,884.0
540.947,881.1
541.083,878.8
541.219,879.5
541.355,884.3
541.49,882.7
541.626,880.7
541.762,881.8
541.898,880.3
542.034,877.8
542.17,878.5
542.305,881.9
542.441,876.5
542.577,878.2
542.713,878.7
542.848,883.6
542.984,882.0
543.12,882.0
543.256,884.0
543.391,884.8
543.527,890.1
543.663,886.0
543.799,891.6
543.934,894.0
544.07,891.3
544.206,885.9
544.341,885.6
544.477,880.8
544.613,878.5
544.748,879.2
544.884,873.3
545.02,878.1
545.155,875.2
545.291,872.3
545.427,870.5
545.562,869.4
545.698,867.6
545.833,867.9
545.969,865.8
546.105,865.2
546.24,868.7
546.376,866.5
546.511,866.2
546.647,866.1
546.782,868.0
546.918,867.9
547.053,868.6
547.189,867.7
547.325,867.8
547.46,869.3
547.596,871.3
547.731,871.1
547.867,873.6
548.002,875.2
548.137,872.1
548.273,872.3
548.408,871.2
548.544,871.9
548.679,869.5
548.815,867.1
548.95,867.9
549.086,867.5
549.221,868.4
549.356,866.8
549.492,865.4
549.627,867.1
549.763,867.7
549.898,866.5
550.033,870.5
550.169,890.7
550.304,939.0
550.439,942.9
550.575,892.2
550.71,873.7
550.845,866.5
550.981,863.9
551.116,862.5
551.251,862.0
551.387,860.1
551.522,861.4
551.657,859.3
551.793,860.5
551.928,860.5
552.063,860.5
552.198,861.2
552.334,858.3
552.469,860.1
552.604,862.5
552.739,862.4
552.874,864.6
553.01,862.5
553.145,859.3
553.28,862.3
553.415,859.0
553.55,861.6
553.686,862.5
553.821,870.4
553.956,876.1
554.091,881.3
554.226,884.7
554.361,889.6
554.497,895.6
554.632,897.9
554.767,894.9
554.902,890.6
555.037,887.9
555.172,887.4
555.307,894.0
555.442,906.9
555.577,928.3
555.712,935.0
555.848,923.2
555.983,903.9
556.118,886.4
556.253,881.5
556.388,874.3
556.523,870.2
556.658,866.7
556.793,870.5
556.928,873.6
557.063,879.9
557.198,881.3
557.333,876.4
557.468,873.6
557.603,868.9
557.738,870.7
557.873,869.3
558.008,867.9
558.142,869.8
558.277,867.5
558.412,869.0
558.547,865.9
558.682,869.3
558.817,870.6
558.952,874.2
559.087,876.9
559.222,873.5
559.357,871.4
559.492,866.6
559.626,866.8
559.761,862.9
559.896,862.3
560.031,863.6
560.166,866.8
560.301,863.1
560.435,866.5
560.57,863.7
560.705,865.7
560.84,867.9
560.975,870.6
561.109,872.1
561.244,871.1
561.379,876.3
561.514,890.8
561.649,910.1
561.783,945.3
561.918,1047.9
562.053,1418.7
562.188,1599.6
562.322,1171.3
562.457,940.7
562.592,897.8
562.726,902.4
562.861,943.5
562.996,1033.1
563.131,1076.5
563.265,1001.6
563.4,934.9
563.535,904.0
563.669,891.0
563.804,885.8
563.939,887.4
564.073,889.0
564.208,891.1
564.342,896.4
564.477,892.5
564.612,891.0
564.746,889.9
564.881,889.1
565.015,887.9
565.15,888.8
565.285,887.5
565.419,883.6
565.554,874.1
565.688,872.7
565.823,870.1
565.957,869.2
566.092,864.6
566.227,866.7
566.361,864.4
566.496,872.7
566.63,878.5
566.765,887.0
566.899,915.5
567.034,939.3
567.168,931.3
567.303,906.4
567.437,895.7
567.572,900.0
567.706,926.7
567.84,962.7
567.975,979.3
568.109,967.3
568.244,977.0
568.378,987.9
568.513,995.9
568.647,973.4
568.781,950.2
568.916,920.4
569.05,905.0
569.185,897.2
569.319,893.2
569.453,888.0
569.588,885.5
569.722,884.2
569.857,880.5
569.991,883.0
570.125,879.7
570.26,883.7
570.394,878.2
570.528,879.4
570.663,876.9
570.797,881.9
570.931,879.6
571.065,879.6
571.2,880.3
571.334,883.0
571.468,886.8
571.603,884.7
571.737,887.6
571.871,894.0
572.005,895.0
572.14,895.9
572.274,900.0
572.408,903.4
572.542,911.9
572.677,911.5
572.811,909.3
572.945,905.5
573.079,895.1
573.213,892.2
573.348,888.7
573.482,887.7
573.616,888.8
573.75,889.0
573.884,891.0
574.018,890.8
574.153,888.6
574.287,883.4
574.421,881.7
574.555,874.5
574.689,874.2
574.823,872.8
574.957,872.9
575.092,876.9
575.226,876.6
575.36,874.1
575.494,871.9
575.628,873.5
575.762,871.6
575.896,872.9
576.03,876.4
576.164,887.2
576.298,892.3
576.432,904.9
576.566,918.8
576.7,920.7
576.834,911.0
576.968,894.2
577.103,879.0
577.237,879.3
577.371,874.8
577.505,874.8
577.639,874.1
577.773,873.3
577.907,875.4
578.04,876.9
578.174,877.5
578.308,874.9
578.442,873.3
578.576,876.0
578.71,873.5
578.844,870.9
578.978,874.6
579.112,871.4
579.246,874.3
579.38,873.7
579.514,873.9
579.648,871.5
579.782,873.1
579.916,873.8
580.049,875.4
580.183,874.8
580.317,877.0
580.451,876.5
580.585,879.3
580.719,881.9
580.853,893.2
580.986,912.5
581.12,945.2
581.254,939.8
581.388,917.8
581.522,940.4
581.656,1010.6
581.789,1078.5
581.923,1038.4
582.057,946.7
582.191,906.6
582.325,892.3
582.458,883.4
582.592,882.4
582.726,876.2
582.86,875.7
582.993,875.5
583.127,875.0
583.261,872.8
583.395,875.1
583.528,874.1
583.662,875.4
583.796,874.8
583.93,874.9
584.063,872.8
584.197,873.6
584.331,871.9
584.464,872.5
584.598,873.2
584.732,874.4
584.865,875.2
584.999,874.1
585.133,870.5
585.266,874.0
585.4,871.3
585.534,871.1
585.667,870.4
585.801,872.7
585.935,872.8
586.068,868.2
586.202,872.9
586.336,872.7
586.469,872.3
586.603,872.1
586.736,871.3
586.87,872.8
587.004,871.1
587.137,867.0
587.271,870.3
587.404,871.7
587.538,869.8
587.671,868.6
587.805,869.9
587.938,871.4
588.072,869.6
588.206,870.6
588.339,872.7
588.473,871.7
588.606,870.6
588.74,871.7
588.873,872.8
589.007,871.5
589.14,869.6
589.274,870.3
589.407,870.6
589.541,870.9
589.674,872.9
589.808,870.2
589.941,866.7
590.074,868.5
590.208,870.8
590.341,871.2
590.475,865.8
590.608,868.3
590.742,871.4
590.875,867.5
591.009,871.9
591.142,869.5
591.275,869.0
591.409,869.7
591.542,868.0
591.676,870.5
591.809,868.3
591.942,870.3
592.076,868.7
592.209,868.0
592.342,868.7
592.476,867.5
592.609,870.2
592.743,869.8
592.876,867.6
593.009,872.7
593.143,869.3
593.276,870.2
593.409,865.9
593.543,870.1
593.676,868.5
593.809,869.3
593.942,870.9
594.076,870.8
594.209,870.9
594.342,869.1
594.476,870.3
594.609,868.2
594.742,869.0
594.875,870.7
595.009,868.4
595.142,868.8
595.275,868.6
595.408,869.7
595.542,872.4
595.675,869.8
595.808,868.4
595.941,866.5
596.075,873.3
596.208,870.3
596.341,867.6
596.474,870.8
596.607,869.6
596.741,868.9
596.874,870.3
597.007,870.6
597.14,872.5
597.273,868.5
597.406,871.1
597.54,868.5
597.673,871.7
597.806,871.1
597.939,869.8
598.072,871.6
598.205,868.3
598.338,872.8
598.472,870.2
598.605,866.3
598.738,870.9
598.871,871.3
599.004,871.6
599.137,869.6
599.27,873.9
599.403,870.4
599.536,870.9
599.67,874.0
599.803,868.8
599.936,870.7
600.069,871.2
600.202,871.1
600.335,875.2
600.468,871.3
600.601,872.2
600.734,870.7
600.867,869.4
601.0,872.9
601.133,873.8
601.266,874.2
601.399,871.7
601.532,872.2
601.665,873.2
601.798,872.5
601.931,871.7
602.064,874.6
602.197,870.2
602.33,873.5
602.463,876.5
602.596,874.3
602.729,875.5
602.862,875.5
602.995,876.4
603.128,870.0
603.261,872.6
603.394,874.3
603.527,873.2
603.66,876.1
603.793,877.1
603.925,875.3
604.058,873.7
604.191,874.3
604.324,876.1
604.457,875.5
604.59,870.2
604.723,875.5
604.856,877.7
604.989,875.6
605.122,872.9
605.254,874.1
605.387,875.1
605.52,875.1
605.653,875.3
605.786,875.4
605.919,875.0
606.052,873.6
606.184,875.6
606.317,874.7
606.45,875.0
606.583,874.0
606.716,876.5
606.849,877.6
606.981,877.7
607.114,878.1
607.247,877.0
607.38,876.1
607.513,877.2
607.645,877.1
607.778,878.9
607.911,876.3
608.044,878.9
608.177,878.2
608.309,881.3
608.442,880.5
608.575,878.7
608.708,881.5
608.84,877.4
608.973,881.9
609.106,882.6
609.239,881.5
609.371,880.8
609.504,882.3
609.637,882.6
609.769,881.5
609.902,880.2
610.035,879.2
610.168,882.9
610.3,881.4
610.433,880.1
610.566,880.7
610.698,882.1
610.831,882.1
610.964,882.7
611.096,883.0
611.229,881.4
611.362,886.5
611.494,881.2
611.627,881.3
611.76,883.3
611.892,885.8
612.025,888.4
612.158,884.9
612.29,884.1
612.423,886.2
612.556,887.1
612.688,886.4
612.821,888.6
612.953,890.3
613.086,887.7
613.219,888.0
613.351,889.4
613.484,888.4
613.616,891.5
613.749,887.3
613.882,887.2
614.014,890.1
614.147,888.7
614.279,888.0
614.412,890.5
614.544,889.3
614.677,891.3
614.809,891.0
614.942,889.5
615.075,890.0
615.207,888.9
615.34,892.1
615.472,893.5
615.605,892.3
615.737,892.1
615.87,887.6
616.002,894.5
616.135,892.7
616.267,895.9
616.4,896.5
616.532,894.4
616.665,893.4
616.797,896.9
616.93,897.7
617.062,894.8
617.195,898.4
617.327,895.7
617.46,898.9
617.592,901.5
617.725,901.8
617.857,898.9
617.989,902.2
618.122,903.3
618.254,900.8
618.387,897.7
618.519,900.4
618.652,899.4
618.784,898.3
618.917,902.4
619.049,897.6
619.181,899.3
619.314,896.0
619.446,893.7
619.579,898.8
619.711,897.2
619.843,898.8
619.976,902.5
620.108,897.8
620.241,899.9
620.373,898.9
620.505,898.4
620.638,901.7
620.77,902.8
620.902,902.5
621.035,901.7
621.167,903.7
621.299,900.2
621.432,904.0
621.564,900.1
621.696,899.1
621.829,901.7
621.961,901.3
622.093,903.4
622.226,901.8
622.358,905.5
622.49,906.8
622.623,898.8
622.755,906.5
622.887,904.1
623.02,902.5
623.152,904.8
623.284,903.3
623.416,904.4
623.549,902.0
623.681,907.9
623.813,905.8
623.946,906.1
624.078,910.5
624.21,902.8
624.342,901.7
624.475,908.3
624.607,908.6
624.739,910.9
624.871,907.6
625.004,908.7
625.136,904.9
625.268,907.2
625.4,906.1
625.533,909.8
625.665,906.4
625.797,908.0
625.929,910.6
626.061,910.8
626.194,907.1
626.326,910.2
626.458,911.3
626.59,915.8
626.722,923.4
626.855,932.3
626.987,952.4
627.119,977.7
627.251,997.7
627.383,1010.6
627.516,1005.0
627.648,993.9
627.78,982.9
627.912,977.8
628.044,975.6
628.176,970.3
628.308,975.2
628.441,981.1
628.573,991.9
628.705,1012.0
628.837,1028.4
628.969,1042.4
629.101,1068.9
629.233,1081.1
629.366,1093.9
629.498,1100.8
629.63,1098.2
629.762,1092.4
629.894,1088.0
630.026,1075.7
630.158,1061.4
630.29,1049.8
630.422,1038.0
630.554,1022.5
630.687,1015.3
630.819,1008.7
630.951,993.1
631.083,983.0
631.215,967.2
631.347,964.9
631.479,954.8
631.611,949.2
631.743,951.9
631.875,951.0
632.007,945.0
632.139,955.7
632.271,963.9
632.403,975.4
632.535,966.8
632.667,949.0
632.799,941.6
632.931,939.7
633.063,946.5
633.195,962.6
633.328,972.6
633.46,971.9
633.592,957.6
633.724,948.6
633.856,944.9
633.988,952.2
634.12,967.2
634.252,995.7
634.384,1024.7
634.516,1061.6
634.647,1106.2
634.779,1138.0
634.911,1149.0
635.043,1170.3
635.175,1245.7
635.307,1378.7
635.439,1438.3
635.571,1422.2
635.703,1410.5
635.835,1367.0
635.967,1280.4
636.099,1189.6
636.231,1107.9
636.363,1049.6
636.495,1016.5
636.627,992.7
636.759,976.4
636.891,966.9
637.023,954.8
637.155,943.1
637.286,941.8
637.418,943.9
637.55,940.1
637.682,937.4
637.814,933.6
637.946,930.8
638.078,932.5
638.21,932.5
638.342,927.0
638.474,928.7
638.605,921.3
638.737,921.0
638.869,924.8
639.001,926.9
639.133,924.3
639.265,928.2
639.397,928.9
639.529,927.0
639.66,930.2
639.792,937.6
639.924,937.6
640.056,940.1
640.188,929.4
640.32,930.5
640.452,922.6
640.583,922.9
640.715,924.3
640.847,921.5
640.979,925.5
641.111,931.3
641.243,935.5
641.374,932.1
641.506,935.5
641.638,934.1
641.77,931.4
641.902,925.7
642.033,922.2
642.165,921.5
642.297,922.6
642.429,920.4
642.561,917.5
642.692,921.2
642.824,921.7
642.956,918.1
643.088,917.5
643.22,919.0
643.351,920.7
643.483,920.7
643.615,915.8
643.747,917.5
643.878,917.8
644.01,920.9
644.142,916.9
644.274,919.8
644.405,920.5
644.537,921.0
644.669,918.8
644.801,916.8
644.932,916.5
645.064,922.9
645.196,919.1
645.328,919.5
645.459,922.6
645.591,916.8
645.723,918.1
645.854,920.5
645.986,920.9
646.118,922.7
646.25,921.5
646.381,919.8
646.513,920.7
646.645,920.2
646.776,917.3
646.908,921.3
647.04,918.7
647.172,921.2
647.303,923.4
647.435,922.4
647.567,922.4
647.698,917.7
647.83,923.0
647.962,921.1
648.093,925.0
648.225,918.0
648.357,921.7
648.488,921.2
648.62,919.6
648.752,921.8
648.883,922.3
649.015,921.9
649.147,917.0
649.278,923.5
649.41,927.0
649.542,926.2
649.673,924.9
649.805,922.1
649.937,921.9
650.068,923.8
650.2,924.8
650.331,920.1
650.463,924.7
650.595,922.9
650.726,923.8
650.858,922.3
650.99,923.3
651.121,925.8
651.253,925.9
651.384,925.2
651.516,927.1
651.648,927.7
651.779,923.3
651.911,922.5
652.042,926.4
652.174,928.1
652.306,927.4
652.437,924.7
652.569,922.1
652.7,924.6
652.832,926.9
652.963,923.3
653.095,924.2
653.227,924.1
653.358,924.8
653.49,923.4
653.621,922.8
653.753,928.7
653.884,926.0
654.016,926.9
654.148,927.8
654.279,924.8
654.411,924.1
654.542,924.4
654.674,926.5
654.805,926.3
654.937,930.8
655.068,926.0
655.2,924.5
655.331,928.7
655.463,929.0
655.595,928.9
655.726,926.1
655.858,927.1
655.989,926.2
656.121,928.4
656.252,928.1
656.384,928.4
656.515,929.0
656.647,929.4
656.778,931.2
656.91,927.1
657.041,929.9
657.173,931.5
657.304,928.9
657.436,929.3
657.567,927.2
657.699,930.7
657.83,933.6
657.962,929.8
658.093,934.4
658.225,928.1
658.356,932.3
658.488,931.7
658.619,930.3
658.751,931.7
658.882,930.9
659.013,926.5
659.145,931.7
659.276,933.6
659.408,930.8
659.539,928.0
659.671,928.6
659.802,931.0
659.934,932.4
660.065,931.3
660.197,930.7
660.328,932.7
660.459,935.0
660.591,931.6
660.722,935.6
660.854,927.2
660.985,934.7
661.117,931.3
661.248,932.1
661.38,933.2
661.511,929.6
661.642,934.2
661.774,934.1
661.905,933.9
662.037,936.7
662.168,933.7
662.299,932.0
662.431,930.8
662.562,931.9
662.694,931.5
662.825,931.4
662.957,934.0
663.088,933.8
