nm,Intensity
528.65,1855.85
528.734,1855.1
528.819,1856.5
528.903,1855.55
528.987,1855.85
529.071,1855.4
529.155,1855.45
529.239,1855.35
529.324,1855.5
529.408,1856.1
529.492,1855.3
529.576,1855.55
529.66,1855.65
529.745,1856.65
529.829,1855.75
529.913,1855.65
529.997,1855.95
530.081,1856.9
530.165,1857.2
530.25,1857.25
530.334,1855.45
530.418,1855.85
530.502,1855.15
530.586,1856.9
530.67,1856.15
530.754,1856.65
530.839,1856.55
530.923,1856.45
531.007,1856.7
531.091,1858.25
531.175,1858.85
531.259,1859.3
531.344,1859.1
531.428,1860.7
531.512,1863.35
531.596,1871.7
531.68,1902.9
531.764,2025.6
531.848,2434.6
531.933,3231.8
532.017,4112.65
532.101,4012.55
532.185,3443.25
532.269,2625.15
532.353,2002.2
532.437,1871.05
532.521,1861.6
532.606,1857.5
532.69,1857.8
532.774,1856.7
532.858,1856.45
532.942,1858.2
533.026,1856.8
533.11,1856.95
533.194,1857.45
533.279,1856.3
533.363,1857.75
533.447,1859.85
533.531,1864.75
533.615,1875.95
533.699,1901.65
533.783,1939.3
533.867,1977.35
533.951,2004.4
534.036,2024.1
534.12,2034.95
534.204,2040.65
534.288,2038.65
534.372,2030.35
534.456,2026.8
534.54,2031.0
534.624,2030.95
534.708,2031.1
534.792,2038.05
534.877,2039.3
534.961,2046.3
535.045,2044.1
535.129,2048.0
535.213,2052.15
535.297,2040.5
535.381,2032.85
535.465,2032.8
535.549,2034.75
535.633,2033.8
535.717,2042.8
535.801,2047.0
535.886,2048.7
535.97,2041.1
536.054,2037.25
536.138,2044.3
536.222,2041.55
536.306,2023.0
536.39,2021.95
536.474,2021.0
536.558,2018.55
536.642,2014.65
536.726,2016.95
536.81,2020.3
536.894,2021.65
536.978,2019.4
537.062,2032.0
537.146,2033.5
537.231,2046.25
537.315,2049.5
537.399,2043.85
537.483,2035.3
537.567,2027.75
537.651,2017.2
537.735,2022.65
537.819,2026.85
537.903,2024.25
537.987,2027.4
538.071,2037.15
538.155,2030.95
538.239,2033.05
538.323,2028.6
538.407,2018.5
538.491,2017.9
538.575,2013.6
538.659,2017.0
538.743,2017.2
538.827,2015.7
538.911,2016.65
538.995,2013.0
539.079,2013.95
539.163,2014.55
539.247,2012.6
539.331,2014.05
539.415,2009.1
539.499,2009.1
539.583,2008.4
539.667,2006.95
539.751,2007.8
539.835,2004.05
539.919,2009.5
540.003,2003.45
540.087,2007.9
540.171,2004.9
540.255,2002.85
540.339,2001.1
540.423,2004.35
540.507,2002.0
540.591,2002.55
540.675,2007.7
540.759,2004.5
540.843,2003.15
540.927,2001.15
541.011,2006.75
541.095,2005.0
541.179,2010.15
541.263,2013.95
541.347,2012.75
541.431,2008.8
541.515,2003.95
541.599,2005.75
541.683,2011.0
541.767,2018.35
541.851,2008.45
541.935,2008.4
542.019,2009.15
542.103,2014.05
542.187,2008.7
542.271,1995.45
542.355,2009.15
542.439,2012.25
542.523,2019.95
542.607,2013.55
542.691,2013.55
542.775,2014.3
542.859,2012.75
542.943,2016.0
543.027,2013.35
543.111,2015.95
543.195,2016.55
543.279,2020.5
543.363,2018.55
543.446,2021.7
543.53,2020.05
543.614,2030.05
543.698,2034.0
543.782,2059.35
543.866,2077.1
543.95,2137.05
544.034,2183.35
544.118,2199.75
544.202,2162.75
544.286,2133.6
544.37,2084.25
544.454,2048.5
544.538,2029.65
544.622,2027.5
544.706,2024.9
544.789,2028.0
544.873,2027.1
544.957,2021.95
545.041,2024.5
545.125,2030.75
545.209,2025.05
545.293,2025.85
545.377,2022.3
545.461,2023.4
545.545,2015.9
545.629,2021.95
545.713,2034.55
545.796,2035.15
545.88,2036.95
545.964,2039.3
546.048,2041.45
546.132,2057.3
546.216,2081.4
546.3,2101.35
546.384,2122.95
546.468,2138.6
546.552,2136.2
546.635,2104.25
546.719,2087.05
546.803,2053.55
546.887,2049.0
546.971,2048.15
547.055,2037.5
547.139,2037.6
547.223,2030.95
547.306,2035.15
547.39,2031.15
547.474,2032.9
547.558,2029.05
547.642,2021.75
547.726,2032.0
547.81,2033.15
547.894,2031.4
547.977,2030.5
548.061,2033.1
548.145,2031.2
548.229,2033.4
548.313,2032.85
548.397,2041.1
548.481,2036.6
548.564,2045.85
548.648,2040.6
548.732,2036.35
548.816,2040.15
548.9,2042.8
548.984,2045.3
549.068,2044.1
549.151,2041.2
549.235,2047.95
549.319,2047.6
549.403,2053.75
549.487,2053.95
549.571,2053.25
549.655,2054.45
549.738,2055.0
549.822,2066.25
549.906,2065.05
549.99,2069.1
550.074,2079.2
550.158,2089.2
550.241,2096.2
550.325,2093.0
550.409,2084.1
550.493,2071.2
550.577,2067.45
550.66,2054.2
550.744,2043.65
550.828,2047.4
550.912,2049.7
550.996,2049.75
551.08,2051.8
551.163,2042.25
551.247,2045.85
551.331,2052.6
551.415,2048.45
551.499,2045.25
551.582,2052.5
551.666,2056.5
551.75,2063.65
551.834,2054.25
551.918,2046.4
552.001,2057.85
552.085,2058.2
552.169,2054.3
552.253,2047.2
552.337,2046.35
552.42,2053.1
552.504,2052.3
552.588,2043.45
552.672,2038.2
552.755,2034.65
552.839,2034.8
552.923,2041.7
553.007,2046.55
553.091,2042.45
553.174,2046.1
553.258,2040.4
553.342,2053.15
553.426,2050.3
553.509,2056.75
553.593,2051.0
553.677,2051.95
553.761,2044.9
553.844,2053.7
553.928,2046.7
554.012,2049.3
554.096,2055.15
554.179,2058.95
554.263,2046.25
554.347,2049.25
554.431,2049.85
554.514,2052.6
554.598,2055.25
554.682,2054.55
554.766,2066.45
554.849,2054.75
554.933,2060.55
555.017,2059.95
555.101,2062.65
555.184,2057.85
555.268,2064.5
555.352,2056.5
555.436,2057.15
555.519,2064.25
555.603,2062.35
555.687,2060.85
555.771,2056.7
555.854,2058.7
555.938,2060.25
556.022,2066.9
556.105,2060.25
556.189,2070.85
556.273,2060.9
556.357,2057.5
556.44,2059.85
556.524,2057.95
556.608,2065.05
556.691,2064.75
556.775,2072.3
556.859,2070.1
556.943,2067.7
557.026,2068.65
557.11,2064.6
557.194,2072.55
557.277,2060.25
557.361,2066.8
557.445,2071.0
557.528,2071.3
557.612,2072.9
557.696,2074.55
557.779,2074.35
557.863,2068.65
557.947,2076.3
558.031,2078.5
558.114,2075.55
558.198,2085.65
558.282,2081.1
558.365,2074.0
558.449,2071.3
558.533,2065.25
558.616,2079.7
558.7,2072.45
558.784,2070.15
558.867,2073.45
558.951,2073.25
559.035,2072.9
559.118,2071.3
559.202,2068.6
559.286,2074.15
559.369,2078.55
559.453,2075.9
559.537,2074.0
559.62,2078.05
559.704,2078.75
559.788,2073.9
559.871,2077.3
559.955,2075.5
560.038,2070.1
560.122,2072.1
560.206,2073.3
560.289,2073.75
560.373,2077.95
560.457,2078.5
560.54,2080.15
560.624,2086.45
560.708,2082.9
560.791,2081.3
560.875,2089.15
560.958,2086.1
561.042,2096.0
561.126,2094.0
561.209,2079.2
561.293,2084.2
561.377,2098.2
561.46,2101.95
561.544,2103.55
561.627,2118.95
561.711,2136.05
561.795,2148.4
561.878,2191.45
561.962,2323.65
562.045,2538.4
562.129,2844.55
562.213,3137.85
562.296,3341.45
562.38,3184.2
562.463,2813.45
562.547,2467.1
562.631,2265.15
562.714,2179.3
562.798,2146.15
562.881,2123.15
562.965,2125.85
563.049,2107.95
563.132,2108.55
563.216,2110.6
563.299,2102.2
563.383,2109.55
563.467,2111.45
563.55,2119.15
563.634,2130.9
563.717,2146.6
563.801,2189.6
563.884,2234.75
563.968,2287.1
564.052,2308.8
564.135,2276.45
564.219,2228.65
564.302,2178.4
564.386,2149.1
564.469,2145.7
564.553,2144.5
564.636,2144.8
564.72,2145.15
564.804,2139.3
564.887,2141.4
564.971,2126.15
565.054,2128.55
565.138,2139.35
565.221,2118.3
565.305,2126.2
565.388,2120.65
565.472,2124.9
565.556,2132.2
565.639,2131.7
565.723,2159.75
565.806,2184.95
565.89,2216.45
565.973,2274.25
566.057,2335.8
566.14,2382.95
566.224,2368.1
566.307,2335.8
566.391,2282.55
566.474,2241.15
566.558,2230.2
566.641,2216.3
566.725,2195.0
566.808,2173.4
566.892,2152.55
566.975,2140.6
567.059,2141.5
567.142,2145.1
567.226,2150.2
567.309,2144.65
567.393,2164.0
567.476,2159.9
567.56,2146.3
567.643,2142.65
567.727,2134.85
567.81,2126.95
567.894,2128.7
567.977,2133.0
568.061,2123.05
568.144,2116.45
568.228,2121.2
568.311,2127.3
568.395,2128.3
568.478,2130.3
568.562,2131.9
568.645,2129.6
568.729,2128.95
568.812,2131.15
568.896,2133.25
568.979,2139.95
569.063,2136.95
569.146,2136.1
569.23,2134.8
569.313,2145.65
569.396,2146.55
569.48,2143.7
569.563,2143.35
569.647,2143.1
569.73,2150.8
569.814,2152.2
569.897,2146.9
569.981,2145.3
570.064,2153.95
570.148,2150.9
570.231,2159.7
570.314,2161.2
570.398,2163.25
570.481,2165.5
570.565,2163.8
570.648,2173.55
570.732,2178.75
570.815,2172.2
570.898,2176.6
570.982,2177.65
571.065,2188.2
571.149,2211.5
571.232,2237.5
571.316,2316.4
571.399,2418.0
571.482,2497.5
571.566,2507.7
571.649,2446.8
571.733,2338.45
571.816,2275.7
571.9,2254.35
571.983,2235.3
572.066,2238.05
572.15,2212.65
572.233,2203.3
572.317,2194.8
572.4,2207.3
572.483,2213.05
572.567,2198.15
572.65,2213.05
572.734,2220.9
572.817,2213.4
572.9,2201.45
572.984,2204.55
573.067,2199.5
573.15,2206.45
573.234,2204.1
573.317,2194.8
573.401,2207.3
573.484,2217.85
573.567,2218.8
573.651,2215.8
573.734,2220.05
573.818,2233.8
573.901,2232.05
573.984,2233.0
574.068,2230.85
574.151,2231.85
574.234,2223.05
574.318,2231.2
574.401,2233.7
574.484,2233.1
574.568,2225.65
574.651,2240.9
574.734,2244.2
574.818,2237.05
574.901,2237.1
574.985,2238.15
575.068,2250.3
575.151,2259.75
575.235,2284.6
575.318,2305.1
575.401,2349.75
575.485,2390.1
575.568,2407.15
575.651,2392.15
575.735,2368.75
575.818,2364.5
575.901,2373.8
575.985,2413.0
576.068,2454.65
576.151,2495.75
576.235,2563.45
576.318,2586.5
576.401,2562.1
576.484,2523.55
576.568,2465.9
576.651,2463.9
576.734,2464.85
576.818,2473.45
576.901,2477.2
576.984,2491.45
577.068,2492.4
577.151,2494.3
577.234,2451.45
577.318,2425.8
577.401,2409.9
577.484,2395.1
577.567,2382.35
577.651,2384.6
577.734,2385.6
577.817,2375.45
577.901,2382.5
577.984,2386.15
578.067,2394.75
578.15,2395.05
578.234,2395.9
578.317,2391.0
578.4,2388.3
578.484,2390.45
578.567,2408.7
578.65,2411.9
578.733,2424.2
578.817,2427.6
578.9,2443.25
578.983,2440.4
579.066,2429.1
579.15,2439.75
579.233,2453.55
579.316,2456.85
579.399,2479.6
579.483,2473.4
579.566,2471.0
579.649,2476.05
579.732,2475.85
579.816,2483.85
579.899,2502.6
579.982,2498.75
580.065,2515.7
580.149,2510.55
580.232,2521.35
580.315,2529.25
580.398,2541.95
580.482,2562.95
580.565,2547.3
580.648,2557.05
580.731,2558.05
580.815,2568.8
580.898,2562.65
580.981,2588.4
581.064,2578.85
581.147,2592.0
581.231,2604.8
581.314,2605.35
581.397,2622.1
581.48,2611.7
581.563,2610.5
581.647,2614.85
581.73,2642.1
581.813,2664.6
581.896,2659.25
581.979,2652.2
582.063,2649.05
582.146,2669.6
582.229,2680.1
582.312,2681.2
582.395,2718.95
582.479,2704.5
582.562,2714.15
582.645,2742.45
582.728,2699.85
582.811,2724.05
582.895,2735.95
582.978,2717.15
583.061,2747.55
583.144,2753.65
583.227,2755.65
583.31,2766.9
583.394,2780.15
583.477,2791.0
583.56,2795.45
583.643,2793.5
583.726,2793.55
583.809,2799.6
583.893,2807.75
583.976,2814.25
584.059,2823.45
584.142,2820.3
584.225,2836.55
584.308,2868.5
584.391,2871.9
584.475,2845.2
584.558,2861.85
584.641,2874.0
584.724,2880.7
584.807,2867.15
584.89,2853.25
584.973,2905.25
585.057,2882.5
585.14,2903.85
585.223,2913.5
585.306,2931.9
585.389,2925.05
585.472,2942.95
585.555,2951.3
585.638,2937.3
585.722,2948.6
585.805,2938.95
585.888,2945.05
585.971,2976.05
586.054,2975.7
586.137,3004.4
586.22,3030.45
586.303,3026.1
586.386,3024.8
586.47,3013.05
586.553,3028.85
586.636,3010.7
586.719,3022.9
586.802,3057.35
586.885,3057.7
586.968,3064.45
587.051,3091.5
587.134,3128.4
587.217,3122.45
587.3,3126.7
587.384,3112.8
587.467,3124.6
587.55,3151.25
587.633,3159.85
587.716,3160.1
587.799,3162.6
587.882,3202.25
587.965,3171.3
588.048,3186.9
588.131,3196.7
588.214,3211.7
588.297,3229.5
588.38,3224.0
588.463,3232.15
588.546,3258.4
588.63,3286.75
588.713,3273.35
588.796,3283.05
588.879,3243.85
588.962,3280.25
589.045,3328.55
589.128,3317.65
589.211,3302.4
589.294,3274.0
589.377,3296.2
589.46,3330.15
589.543,3324.25
589.626,3325.45
589.709,3375.55
589.792,3376.0
589.875,3367.75
589.958,3355.45
590.041,3393.25
590.124,3425.45
590.207,3436.55
590.29,3449.55
590.373,3443.35
590.456,3451.7
590.539,3485.95
590.622,3516.45
590.705,3483.55
590.788,3481.4
590.871,3478.05
590.954,3491.4
591.037,3504.15
591.12,3496.8
591.203,3524.3
591.286,3530.5
591.369,3569.0
591.452,3572.25
591.535,3561.2
591.618,3573.2
591.701,3593.35
591.784,3609.9
591.867,3638.45
591.95,3673.5
592.033,3638.95
592.116,3621.7
592.199,3637.3
592.282,3626.65
592.365,3655.15
592.448,3692.65
592.531,3678.15
592.614,3660.1
592.697,3670.55
592.78,3648.5
592.863,3701.25
592.946,3731.1
593.029,3742.25
593.112,3723.1
593.195,3673.1
593.278,3736.6
593.361,3745.75
593.443,3692.8
593.526,3731.9
593.609,3733.25
593.692,3741.7
593.775,3738.25
593.858,3765.45
593.941,3788.55
594.024,3767.4
594.107,3796.8
594.19,3791.3
594.273,3794.95
594.356,3806.35
594.439,3789.6
594.522,3790.6
594.604,3817.25
594.687,3845.2
594.77,3830.6
594.853,3851.45
594.936,3887.5
595.019,3907.05
595.102,3873.45
595.185,3818.8
595.268,3894.45
595.351,3969.7
595.434,3917.65
595.516,3898.35
595.599,3915.8
595.682,3960.75
595.765,3944.45
595.848,3962.85
595.931,4005.3
596.014,4021.2
596.097,3961.85
596.18,3994.95
596.262,4025.0
596.345,4020.6
596.428,4002.0
596.511,3998.0
596.594,4038.1
596.677,4076.25
596.76,4058.4
596.843,4034.3
596.925,4047.05
597.008,4049.65
597.091,4109.65
597.174,4114.85
597.257,4160.9
597.34,4176.5
597.423,4179.1
597.505,4146.85
597.588,4122.1
597.671,4092.65
597.754,4120.0
597.837,4194.9
597.92,4230.3
598.002,4254.8
598.085,4217.25
598.168,4171.1
598.251,4215.45
598.334,4247.75
598.417,4272.25
598.499,4297.7
598.582,4288.95
598.665,4246.05
598.748,4250.8
598.831,4263.0
598.914,4301.7
598.996,4322.85
599.079,4313.85
599.162,4360.9
599.245,4383.8
599.328,4414.0
599.41,4458.15
599.493,4369.2
599.576,4362.8
599.659,4382.45
599.742,4446.8
599.824,4458.7
599.907,4440.15
599.99,4387.8
600.073,4375.45
600.156,4457.25
600.238,4485.05
600.321,4498.75
600.404,4517.35
600.487,4463.35
600.57,4474.7
600.652,4534.7
600.735,4554.25
600.818,4501.15
600.901,4467.85
600.983,4447.8
601.066,4511.4
601.149,4549.3
601.232,4534.0
601.314,4498.6
601.397,4583.65
601.48,4567.75
601.563,4547.65
601.645,4484.4
601.728,4510.4
601.811,4544.85
601.894,4529.6
601.976,4547.8
602.059,4521.75
602.142,4520.15
602.225,4486.0
602.307,4488.85
602.39,4557.85
602.473,4595.3
602.556,4554.05
602.638,4472.45
602.721,4463.55
602.804,4446.95
602.887,4455.8
602.969,4500.6
603.052,4522.95
603.135,4510.0
603.217,4516.25
603.3,4494.9
603.383,4485.8
603.466,4470.55
603.548,4466.85
603.631,4462.95
603.714,4446.4
603.796,4463.1
603.879,4452.95
603.962,4407.1
604.045,4325.2
604.127,4317.5
604.21,4404.3
604.293,4397.35
604.375,4348.55
604.458,4332.7
604.541,4344.25
604.623,4329.3
604.706,4305.2
604.789,4257.1
604.871,4273.85
604.954,4257.95
605.037,4232.8
605.119,4218.0
605.202,4223.9
605.285,4178.05
605.367,4218.0
605.45,4199.2
605.533,4172.35
605.615,4157.35
605.698,4197.25
605.781,4170.25
605.863,4139.3
605.946,4090.85
606.029,4047.5
606.111,4063.85
606.194,4101.7
606.277,4119.0
606.359,4120.25
606.442,4115.4
606.524,4086.7
606.607,4043.55
606.69,4011.65
606.772,4027.15
606.855,4007.85
606.938,3943.95
607.02,3954.2
607.103,3994.15
607.185,3974.25
607.268,3921.4
607.351,3874.7
607.433,3876.25
607.516,3896.4
607.599,3917.45
607.681,3892.9
607.764,3870.45
607.846,3843.15
607.929,3809.65
608.012,3784.2
608.094,3810.6
608.177,3809.9
608.259,3823.65
608.342,3809.75
608.425,3787.4
608.507,3795.05
608.59,3787.15
608.672,3742.05
608.755,3750.4
608.837,3730.1
608.92,3671.55
609.003,3627.3
609.085,3652.65
609.168,3654.85
609.25,3693.75
609.333,3696.0
609.415,3675.1
609.498,3683.3
609.581,3655.1
609.663,3608.8
609.746,3634.1
609.828,3623.75
609.911,3613.4
609.993,3606.45
610.076,3595.95
610.158,3603.95
610.241,3635.45
610.324,3636.15
610.406,3585.05
610.489,3566.7
610.571,3542.3
610.654,3542.7
610.736,3543.15
610.819,3536.05
610.901,3556.4
610.984,3513.0
611.066,3488.35
611.149,3520.25
611.231,3537.9
611.314,3504.3
611.396,3448.5
611.479,3485.05
611.561,3503.55
611.644,3497.65
611.727,3495.55
611.809,3474.5
611.892,3446.05
611.974,3418.65
612.057,3456.4
612.139,3456.15
612.222,3425.45
612.304,3391.95
612.386,3404.3
612.469,3435.4
612.551,3410.95
612.634,3375.3
612.716,3391.45
612.799,3400.65
612.881,3392.75
612.964,3388.2
613.046,3362.35
613.129,3350.6
613.211,3342.2
613.294,3362.2
613.376,3414.05
613.459,3389.9
613.541,3357.0
613.624,3337.35
613.706,3293.15
613.789,3307.6
613.871,3311.15
613.953,3334.4
614.036,3341.75
614.118,3332.0
614.201,3341.15
614.283,3302.3
614.366,3293.45
614.448,3280.7
614.531,3272.35
614.613,3292.2
614.695,3286.65
614.778,3307.35
614.86,3268.4
614.943,3263.1
615.025,3289.1
615.108,3262.8
615.19,3269.15
615.272,3255.25
615.355,3253.25
615.437,3260.3
615.52,3247.8
615.602,3233.85
615.684,3239.8
615.767,3233.1
615.849,3225.95
615.932,3230.65
616.014,3204.4
616.097,3205.35
616.179,3202.7
616.261,3207.3
616.344,3219.85
616.426,3197.0
616.508,3157.25
616.591,3181.8
616.673,3143.15
616.756,3185.55
616.838,3202.8
616.92,3146.4
617.003,3155.55
617.085,3175.7
617.168,3192.5
617.25,3166.4
617.332,3169.3
617.415,3157.95
617.497,3128.85
617.579,3113.95
617.662,3114.65
617.744,3150.1
617.826,3154.6
617.909,3137.15
617.991,3157.0
618.073,3127.25
618.156,3107.05
618.238,3090.85
618.32,3127.85
618.403,3147.25
618.485,3137.5
618.567,3125.0
618.65,3130.9
618.732,3087.5
618.814,3084.75
618.897,3075.8
618.979,3078.7
619.061,3117.65
619.144,3117.2
619.226,3088.8
619.308,3072.1
619.391,3086.5
619.473,3091.75
619.555,3099.45
619.638,3110.7
619.72,3086.35
619.802,3079.25
619.885,3071.5
619.967,3088.9
620.049,3072.95
620.131,3075.75
620.214,3094.9
620.296,3080.15
620.378,3078.0
620.461,3079.35
620.543,3076.85
620.625,3071.7
620.707,3071.1
620.79,3063.05
620.872,3045.85
620.954,3023.85
621.037,3028.65
621.119,3063.55
621.201,3094.5
621.283,3080.2
621.366,3071.85
621.448,3080.45
621.53,3067.2
621.612,3096.95
621.695,3090.05
621.777,3089.8
621.859,3097.35
621.941,3109.55
622.024,3099.95
622.106,3092.55
622.188,3096.35
622.27,3124.0
622.353,3140.45
622.435,3124.45
622.517,3122.9
622.599,3091.55
622.682,3098.55
622.764,3096.3
622.846,3062.85
622.928,3040.65
623.01,3018.3
623.093,2989.5
623.175,3013.4
623.257,3005.5
623.339,2971.05
623.422,2992.55
623.504,2985.45
623.586,2982.5
623.668,3013.7
623.75,3020.9
623.833,2998.65
623.915,3006.1
623.997,2983.25
624.079,2964.0
624.161,2947.65
624.244,2958.8
624.326,2975.0
624.408,2997.6
624.49,3027.85
624.572,3022.25
624.654,2990.45
624.737,2993.35
624.819,2982.65
624.901,2965.85
624.983,2949.45
625.065,2953.0
625.147,2966.1
625.23,2957.55
625.312,2965.95
625.394,2989.35
625.476,3003.05
625.558,2970.45
625.64,2979.15
625.723,3010.2
625.805,2972.8
625.887,2970.05
625.969,2986.9
626.051,3022.75
626.133,3065.25
626.215,3074.7
626.298,3096.3
626.38,3118.4
626.462,3173.55
626.544,3279.9
626.626,3458.2
626.708,3644.95
626.79,3838.2
626.872,4083.15
626.955,4415.85
627.037,4650.45
627.119,4915.75
627.201,5003.05
627.283,4936.05
627.365,4843.4
627.447,4654.45
627.529,4500.05
627.611,4378.25
627.693,4267.25
627.776,4182.5
627.858,4100.85
627.94,4006.2
628.022,4009.6
628.104,4147.85
628.186,4369.3
628.268,4574.75
628.35,4815.0
628.432,4983.95
628.514,5185.55
628.596,5200.2
628.678,5073.6
628.761,4808.7
628.843,4477.95
628.925,4241.25
629.007,4216.15
629.089,4183.8
629.171,4064.4
629.253,4037.55
629.335,4010.15
629.417,3981.3
629.499,3914.1
629.581,3784.1
629.663,3746.0
629.745,3748.8
629.827,3754.0
629.909,3675.2
629.991,3611.6
630.073,3616.0
630.155,3621.2
630.237,3609.15
630.319,3608.8
630.401,3603.3
630.483,3513.95
630.565,3484.15
630.647,3510.85
630.73,3447.85
630.812,3349.95
630.894,3273.7
630.976,3257.55
631.058,3198.4
631.14,3141.2
631.222,3098.8
631.304,3067.65
631.386,3085.1
631.468,3082.4
631.55,3042.85
631.632,2996.15
631.714,2977.75
631.796,2980.3
631.877,3029.15
631.959,3003.3
632.041,2986.55
632.123,2979.45
632.205,3003.35
632.287,2977.75
632.369,2971.05
632.451,2979.55
632.533,2970.8
632.615,2976.15
632.697,2974.65
632.779,2982.2
632.861,2973.55
632.943,3021.8
633.025,3007.65
633.107,3042.2
633.189,3007.9
633.271,2991.15
633.353,2980.7
633.435,2994.6
633.517,2965.1
633.599,2987.7
633.681,2997.5
633.763,2983.25
633.844,2984.95
633.926,2993.45
634.008,2979.85
634.09,2961.95
634.172,2994.2
634.254,2995.2
634.336,2983.05
634.418,3001.2
634.5,3023.35
634.582,3013.65
634.664,2994.9
634.746,2985.8
634.827,2964.3
634.909,2970.5
634.991,2988.2
635.073,2979.05
635.155,2985.05
635.237,3030.35
635.319,3022.85
635.401,2998.75
635.483,2968.75
635.564,2967.45
635.646,2956.45
635.728,2953.6
635.81,2979.05
635.892,3006.85
635.974,3003.1
636.056,2991.4
636.138,2985.45
636.219,2984.6
636.301,2987.35
636.383,2980.05
