nm,Intensity
526.508,831.3
526.645,831.2
526.782,829.6
526.919,830.6
527.055,830.4
527.192,830.0
527.329,829.6
527.465,830.6
527.602,829.2
527.739,830.8
527.875,830.6
528.012,830.2
528.149,830.0
528.285,830.6
528.422,829.7
528.558,830.4
528.695,829.6
528.832,829.7
528.968,830.1
529.105,829.6
529.241,829.8
529.378,831.5
529.514,830.2
529.651,829.2
529.787,831.3
529.924,831.8
530.061,829.8
530.197,829.3
530.334,828.6
530.47,831.0
530.606,829.2
530.743,830.1
530.879,829.1
531.016,829.7
531.152,831.5
531.289,830.2
531.425,831.3
531.562,830.0
531.698,830.5
531.834,829.7
531.971,833.4
532.107,860.3
532.244,869.4
532.38,839.9
532.516,831.3
532.653,829.1
532.789,831.0
532.925,861.7
533.062,917.2
533.198,830.9
533.334,829.8
533.471,830.4
533.607,835.3
533.743,881.2
533.879,1109.3
534.016,1516.6
534.152,1704.6
534.288,1690.4
534.424,1625.0
534.561,1572.8
534.697,1502.6
534.833,1453.5
534.969,1367.2
535.106,1282.9
535.242,1228.8
535.378,1174.7
535.514,1126.2
535.65,1089.3
535.786,1058.5
535.923,1032.8
536.059,1011.2
536.195,999.6
536.331,983.7
536.467,981.3
536.603,974.0
536.739,967.4
536.876,966.2
537.012,968.3
537.148,962.7
537.284,954.3
537.42,953.8
537.556,955.8
537.692,951.5
537.828,953.0
537.964,951.5
538.1,959.2
538.236,963.7
538.372,964.8
538.508,963.8
538.644,965.2
538.78,956.5
538.916,947.0
539.052,933.1
539.188,922.0
539.324,916.5
539.46,911.7
539.596,908.9
539.732,911.1
539.868,909.5
540.004,908.1
540.14,902.8
540.275,906.4
540.411,902.6
540.547,901.2
540.683,903.4
540.819,897.7
540.955,899.1
541.091,897.4
541.227,900.5
541.362,901.4
541.498,896.8
541.634,898.8
541.77,898.6
541.906,903.9
542.041,899.6
542.177,899.9
542.313,896.6
542.449,899.0
542.585,897.3
542.72,901.0
542.856,901.7
542.992,898.7
543.128,898.0
543.263,900.5
543.399,903.4
543.535,903.6
543.67,906.7
543.806,908.4
543.942,907.1
544.078,906.7
544.213,902.2
544.349,901.4
544.485,899.0
544.62,897.1
544.756,896.2
544.892,898.7
545.027,896.4
545.163,896.6
545.298,893.1
545.434,895.8
545.57,890.1
545.705,891.5
545.841,891.9
545.976,888.0
546.112,892.6
546.248,891.8
546.383,892.1
546.519,894.2
546.654,889.5
546.79,889.5
546.925,888.8
547.061,892.7
547.196,889.5
547.332,892.3
547.467,892.4
547.603,893.6
547.738,891.1
547.874,892.4
548.009,895.8
548.145,893.5
548.28,892.3
548.416,896.7
548.551,894.9
548.686,892.2
548.822,893.2
548.957,893.5
549.093,889.7
549.228,891.0
549.363,889.9
549.499,892.4
549.634,890.8
549.77,891.8
549.905,889.2
550.04,892.3
550.176,901.2
550.311,932.9
550.446,936.0
550.582,906.8
550.717,894.9
550.852,888.9
550.988,888.4
551.123,888.3
551.258,886.3
551.394,884.6
551.529,888.2
551.664,887.4
551.799,884.9
551.935,885.2
552.07,884.3
552.205,885.4
552.34,887.3
552.476,885.9
552.611,887.2
552.746,885.6
552.881,887.9
553.016,888.2
553.152,886.2
553.287,891.5
553.422,883.8
553.557,884.3
553.692,892.0
553.827,895.8
553.963,896.4
554.098,897.6
554.233,900.0
554.368,906.9
554.503,908.5
554.638,909.7
554.773,910.4
554.908,905.3
555.043,904.9
555.179,903.1
555.314,907.6
555.449,915.7
555.584,926.3
555.719,929.3
555.854,922.8
555.989,911.3
556.124,905.7
556.259,898.4
556.394,895.6
556.529,891.0
556.664,889.9
556.799,890.3
556.934,896.3
557.069,899.5
557.204,898.0
557.339,893.4
557.474,895.7
557.609,895.8
557.744,889.9
557.879,894.2
558.014,890.6
558.149,892.0
558.284,890.7
558.419,889.6
558.553,890.1
558.688,891.0
558.823,890.1
558.958,897.6
559.093,898.5
559.228,900.9
559.363,890.4
559.498,891.6
559.632,891.3
559.767,890.6
559.902,892.2
560.037,889.2
560.172,891.2
560.307,892.8
560.441,890.5
560.576,895.9
560.711,891.2
560.846,894.7
560.981,893.6
561.115,893.4
561.25,894.6
561.385,899.6
561.52,905.4
561.654,915.8
561.789,938.6
561.924,1000.9
562.059,1225.0
562.193,1347.5
562.328,1091.9
562.463,942.6
562.598,911.0
562.732,912.2
562.867,935.3
563.002,992.3
563.136,1019.3
563.271,976.2
563.406,931.6
563.54,914.6
563.675,909.1
563.81,905.1
563.944,905.6
564.079,906.5
564.213,910.1
564.348,909.4
564.483,908.0
564.617,910.4
564.752,907.5
564.887,906.5
565.021,902.9
565.156,908.5
565.29,906.7
565.425,902.4
565.559,902.4
565.694,899.7
565.828,896.4
565.963,899.4
566.098,893.2
566.232,893.2
566.367,891.4
566.501,896.1
566.636,901.1
566.77,906.1
566.905,924.1
567.039,941.5
567.174,936.5
567.308,918.9
567.443,914.9
567.577,917.6
567.711,929.5
567.846,958.0
567.98,961.4
568.115,956.1
568.249,962.2
568.384,973.0
568.518,973.6
568.652,965.1
568.787,937.8
568.921,930.2
569.056,920.3
569.19,916.1
569.324,911.9
569.459,913.0
569.593,907.6
569.727,910.0
569.862,906.7
569.996,909.6
570.131,905.5
570.265,911.9
570.399,905.9
570.534,904.7
570.668,902.9
570.802,902.7
570.936,904.6
571.071,907.6
571.205,906.2
571.339,908.7
571.474,906.6
571.608,908.6
571.742,909.9
571.876,914.0
572.011,913.0
572.145,916.0
572.279,918.5
572.413,922.5
572.548,923.4
572.682,924.8
572.816,922.7
572.95,919.0
573.084,917.2
573.219,912.1
573.353,912.4
573.487,912.3
573.621,911.2
573.755,913.9
573.889,910.7
574.024,914.0
574.158,913.2
574.292,910.3
574.426,906.2
574.56,905.0
574.694,908.3
574.828,904.3
574.963,908.2
575.097,909.5
575.231,907.7
575.365,904.3
575.499,901.2
575.633,905.8
575.767,903.8
575.901,902.5
576.035,905.4
576.169,912.6
576.303,916.9
576.437,924.5
576.571,928.0
576.706,931.3
576.84,931.0
576.974,915.5
577.108,910.9
577.242,906.5
577.376,905.8
577.51,904.5
577.644,906.8
577.778,907.0
577.912,907.0
578.046,905.6
578.179,906.5
578.313,901.3
578.447,904.2
578.581,906.0
578.715,906.9
578.849,905.7
578.983,906.2
579.117,908.7
579.251,902.1
579.385,902.1
579.519,908.6
579.653,906.3
579.787,903.7
579.921,905.7
580.054,904.8
580.188,907.5
580.322,906.8
580.456,907.2
580.59,910.6
580.724,907.3
580.858,918.1
580.991,931.9
581.125,948.8
581.259,945.6
581.393,934.1
581.527,947.5
581.661,990.5
581.794,1033.6
581.928,1006.6
582.062,956.1
582.196,926.6
582.33,915.8
582.463,912.5
582.597,912.4
582.731,909.0
582.865,909.9
582.998,906.4
583.132,907.1
583.266,907.7
583.4,905.1
583.533,906.4
583.667,904.5
583.801,906.5
583.935,908.7
584.068,904.6
584.202,907.7
584.336,907.9
584.469,905.7
584.603,904.3
584.737,904.3
584.87,907.1
585.004,904.8
585.138,904.4
585.271,905.9
585.405,906.3
585.539,902.9
585.672,904.7
585.806,904.1
585.94,906.0
586.073,902.2
586.207,907.0
586.34,905.4
586.474,906.2
586.608,902.2
586.741,905.6
586.875,904.7
587.008,901.0
587.142,903.4
587.276,905.3
587.409,905.6
587.543,906.8
587.676,904.1
587.81,906.1
587.943,901.7
588.077,904.7
588.21,899.2
588.344,901.6
588.478,901.9
588.611,901.0
588.745,900.5
588.878,905.2
589.012,904.4
589.145,898.9
589.279,904.5
589.412,905.3
589.546,902.4
589.679,898.2
589.812,898.0
589.946,901.9
590.079,899.2
590.213,900.1
590.346,898.1
590.48,899.9
590.613,903.6
590.747,900.5
590.88,899.9
591.013,899.1
591.147,902.4
591.28,903.5
591.414,901.5
591.547,901.9
591.68,899.9
591.814,902.0
591.947,900.5
592.081,903.7
592.214,898.8
592.347,897.1
592.481,903.5
592.614,901.3
592.747,900.8
592.881,898.4
593.014,903.3
593.147,902.0
593.281,902.0
593.414,900.0
593.547,899.3
593.681,900.3
593.814,903.1
593.947,897.7
594.081,900.5
594.214,900.4
594.347,900.3
594.48,898.8
594.614,904.0
594.747,899.2
594.88,898.2
595.014,901.5
595.147,899.8
595.28,900.6
595.413,899.1
595.547,902.6
595.68,899.8
595.813,900.8
595.946,898.2
596.079,897.0
596.213,900.2
596.346,898.2
596.479,902.8
596.612,900.4
596.745,901.2
596.879,896.6
597.012,899.3
597.145,897.6
597.278,902.2
597.411,896.3
597.545,897.3
597.678,900.1
597.811,899.0
597.944,900.7
598.077,901.1
598.21,901.3
598.343,899.1
598.476,903.1
598.61,898.3
598.743,899.8
598.876,897.4
599.009,901.7
599.142,902.2
599.275,901.4
599.408,900.3
599.541,900.8
599.674,899.8
599.807,896.7
599.941,900.0
600.074,900.8
600.207,899.7
600.34,897.9
600.473,899.0
600.606,897.7
600.739,901.1
600.872,899.4
601.005,901.8
601.138,898.7
601.271,900.0
601.404,899.7
601.537,895.4
601.67,899.9
601.803,898.0
601.936,900.3
602.069,902.6
602.202,901.6
602.335,898.5
602.468,900.6
602.601,903.2
602.734,901.9
602.867,896.9
603.0,898.4
603.133,898.9
603.266,897.4
603.399,903.0
603.532,901.1
603.664,896.5
603.797,900.6
603.93,903.2
604.063,900.9
604.196,898.2
604.329,902.1
604.462,898.4
604.595,897.6
604.728,898.8
604.861,899.6
604.994,900.1
605.126,899.3
605.259,899.2
605.392,897.7
605.525,898.7
605.658,896.8
605.791,900.0
605.924,898.8
606.056,896.7
606.189,899.7
606.322,898.6
606.455,898.0
606.588,900.0
606.721,895.3
606.853,897.9
606.986,898.7
607.119,899.0
607.252,898.6
607.385,900.9
607.517,898.8
607.65,900.0
607.783,901.1
607.916,900.4
608.049,902.2
608.181,899.7
608.314,901.9
608.447,900.6
608.58,903.0
608.712,901.8
608.845,899.0
608.978,901.0
609.111,900.8
609.243,904.0
609.376,900.9
609.509,899.8
609.641,901.3
609.774,904.1
609.907,900.4
610.04,901.2
610.172,901.3
610.305,901.4
610.438,897.2
610.57,901.2
610.703,902.4
610.836,903.5
610.968,902.2
611.101,900.6
611.234,899.8
611.366,901.7
611.499,902.3
611.632,904.6
611.764,901.6
611.897,905.4
612.03,902.4
612.162,905.4
612.295,902.5
612.428,903.6
612.56,906.4
612.693,906.0
612.825,905.9
612.958,903.6
613.091,904.5
613.223,902.7
613.356,906.4
613.488,904.9
613.621,903.9
613.754,902.8
613.886,908.5
614.019,904.5
614.151,903.6
614.284,906.6
614.416,906.6
614.549,910.2
614.681,904.3
614.814,905.0
614.947,906.6
615.079,908.1
615.212,907.4
615.344,907.5
615.477,907.2
615.609,907.6
615.742,909.1
615.874,902.7
616.007,907.8
616.139,906.7
616.272,906.0
616.404,906.9
616.537,910.9
616.669,907.5
616.802,909.0
616.934,908.1
617.067,911.1
617.199,907.8
617.332,911.8
617.464,912.8
617.596,912.2
617.729,914.6
617.861,912.4
617.994,911.0
618.126,912.5
618.259,914.5
618.391,910.5
618.524,913.7
618.656,913.0
618.788,910.2
618.921,914.2
619.053,912.6
619.186,910.4
619.318,911.0
619.45,909.3
619.583,914.6
619.715,908.4
619.848,912.9
619.98,910.0
620.112,911.8
620.245,910.8
620.377,908.7
620.509,911.7
620.642,913.0
620.774,914.6
620.907,910.0
621.039,912.0
621.171,912.3
621.304,916.0
621.436,909.6
621.568,909.5
621.701,912.8
621.833,911.0
621.965,913.9
622.097,913.1
622.23,911.1
622.362,914.7
622.494,912.3
622.627,914.0
622.759,915.5
622.891,914.0
623.024,917.0
623.156,913.5
623.288,917.4
623.42,913.2
623.553,914.5
623.685,913.2
623.817,918.3
623.949,914.8
624.082,914.1
624.214,913.5
624.346,916.1
624.479,917.8
624.611,917.2
624.743,920.0
624.875,916.5
625.007,914.9
625.14,913.8
625.272,915.3
625.404,914.1
625.536,911.6
625.669,915.3
625.801,914.1
625.933,913.3
626.065,915.3
626.197,917.3
626.33,916.9
626.462,916.4
626.594,920.7
626.726,923.9
626.858,928.3
626.99,938.8
627.123,952.0
627.255,964.7
627.387,970.2
627.519,966.4
627.651,960.0
627.783,959.1
627.916,951.4
628.048,948.3
628.18,946.0
628.312,950.0
628.444,956.3
628.576,962.4
628.708,970.1
628.84,978.4
628.973,991.4
629.105,1000.5
629.237,1015.2
629.369,1011.1
629.501,1020.6
629.633,1011.9
629.765,1014.6
629.897,1012.4
630.029,1001.9
630.161,998.0
630.294,990.1
630.426,984.5
630.558,979.2
630.69,971.9
630.822,970.6
630.954,962.2
631.086,955.4
631.218,946.1
631.35,946.1
631.482,947.6
631.614,935.7
631.746,935.2
631.878,936.0
632.01,938.2
632.142,941.0
632.274,950.5
632.406,952.3
632.538,946.8
632.67,933.7
632.802,929.5
632.934,931.4
633.066,931.8
633.198,939.5
633.33,949.2
633.462,952.2
633.594,936.5
633.726,933.8
633.858,935.8
633.99,937.5
634.122,946.0
634.254,963.3
634.386,976.4
634.518,997.2
634.65,1015.7
634.782,1029.0
634.914,1039.1
635.046,1047.7
635.178,1094.6
635.31,1149.4
635.442,1194.0
635.574,1178.3
635.706,1172.8
635.838,1162.0
635.97,1107.2
636.102,1057.9
636.234,1019.8
636.365,989.3
636.497,970.6
636.629,960.7
636.761,952.1
636.893,947.7
637.025,938.5
637.157,934.7
637.289,933.0
637.421,931.1
637.553,931.1
637.685,929.0
637.816,927.8
637.948,927.9
638.08,926.6
638.212,923.5
638.344,921.3
638.476,922.0
638.608,922.2
638.74,919.7
638.871,922.0
639.003,920.2
639.135,919.5
639.267,920.5
639.399,923.5
639.531,921.1
639.662,919.9
639.794,927.3
639.926,930.6
640.058,922.8
640.19,923.6
640.322,920.6
640.453,919.5
640.585,922.4
640.717,921.5
640.849,919.0
640.981,918.9
641.113,922.2
641.244,922.5
641.376,923.9
641.508,926.7
641.64,928.2
641.772,920.4
641.903,918.5
642.035,918.2
642.167,916.1
642.299,915.5
642.43,921.1
642.562,918.6
642.694,918.5
642.826,914.7
642.958,918.0
643.089,916.0
643.221,918.1
643.353,916.2
643.485,917.9
643.616,916.1
643.748,918.1
643.88,912.7
644.012,916.3
644.143,914.0
644.275,914.2
644.407,916.4
644.538,914.8
644.67,915.8
644.802,916.4
644.934,913.6
645.065,916.0
645.197,916.7
645.329,913.0
645.461,915.3
645.592,915.9
645.724,913.2
645.856,913.6
645.987,914.1
646.119,912.6
646.251,915.9
646.382,913.2
646.514,916.6
646.646,918.0
646.777,917.4
646.909,915.4
647.041,916.3
647.172,918.5
647.304,914.8
647.436,912.8
647.567,915.4
647.699,915.8
647.831,916.8
647.962,914.6
648.094,913.7
648.226,919.5
648.357,916.6
648.489,917.2
648.621,914.9
648.752,917.1
648.884,914.6
649.016,911.4
649.147,914.7
649.279,914.3
649.411,913.4
649.542,913.7
649.674,915.5
649.805,914.5
649.937,914.4
650.069,910.6
650.2,914.7
650.332,913.8
650.463,913.4
650.595,915.1
650.727,913.5
650.858,911.0
650.99,912.3
651.121,915.8
651.253,911.6
651.385,913.6
651.516,914.9
651.648,912.1
651.779,909.8
651.911,911.7
652.043,911.0
652.174,911.4
652.306,918.3
652.437,913.6
652.569,912.8
652.7,912.2
652.832,916.1
652.963,920.0
653.095,914.2
653.227,917.3
653.358,915.4
653.49,912.8
653.621,912.7
653.753,915.1
653.884,915.3
654.016,912.4
654.147,914.7
654.279,909.9
654.41,911.3
654.542,910.8
654.674,913.6
654.805,912.0
654.937,910.9
655.068,915.1
655.2,910.6
655.331,912.6
655.463,917.6
655.594,912.9
655.726,912.5
655.857,911.6
655.989,915.1
656.12,910.3
656.252,917.6
656.383,911.4
656.515,915.1
656.646,912.9
656.778,914.3
656.909,913.1
657.041,916.3
657.172,914.6
657.304,914.7
657.435,915.6
657.567,912.2
657.698,915.8
657.829,912.9
657.961,913.7
658.092,910.1
658.224,916.7
658.355,912.7
658.487,914.6
658.618,911.3
658.75,914.5
658.881,916.4
659.013,915.0
659.144,912.1
659.275,911.2
659.407,911.9
659.538,911.0
659.67,913.8
659.801,916.4
659.933,913.5
660.064,912.9
660.196,912.9
660.327,911.6
660.458,909.1
660.59,913.6
660.721,910.4
660.853,909.7
660.984,912.0
661.116,913.4
661.247,911.9
661.378,911.8
661.51,912.1
661.641,910.7
661.773,911.7
661.904,910.0
662.035,911.3
662.167,908.1
662.298,911.7
662.43,914.5
662.561,913.7
662.692,910.7
662.824,909.4
662.955,912.8
663.087,911.8
