nm,Intensity
526.5,829.2
526.637,828.7
526.774,829.2
526.91,829.8
527.047,828.1
527.184,831.1
527.32,829.9
527.457,828.3
527.594,829.3
527.73,827.9
527.867,829.1
528.004,828.3
528.14,829.9
528.277,828.9
528.414,829.2
528.55,828.2
528.687,829.7
528.823,829.3
528.96,829.9
529.096,829.5
529.233,826.9
529.37,830.3
529.506,829.5
529.643,828.5
529.779,828.1
529.916,829.9
530.052,829.7
530.189,828.1
530.325,828.7
530.462,829.6
530.598,828.9
530.735,830.2
530.871,829.0
531.008,829.9
531.144,829.4
531.28,828.9
531.417,830.1
531.553,828.4
531.69,830.0
531.826,829.0
531.962,831.1
532.099,854.7
532.235,864.3
532.372,836.8
532.508,829.8
532.644,829.0
532.781,829.2
532.917,828.8
533.053,827.4
533.19,829.7
533.326,830.2
533.462,827.7
533.599,829.2
533.735,834.7
533.871,848.9
534.007,872.5
534.144,881.3
534.28,877.6
534.416,876.2
534.552,878.4
534.689,877.5
534.825,883.7
534.961,887.1
535.097,891.7
535.234,892.8
535.37,886.2
535.506,871.6
535.642,860.5
535.778,856.6
535.914,853.5
536.051,852.0
536.187,848.2
536.323,848.3
536.459,849.2
536.595,850.7
536.731,852.0
536.867,863.4
537.003,869.9
537.14,873.8
537.276,864.7
537.412,862.3
537.548,854.0
537.684,852.2
537.82,847.8
537.956,847.8
538.092,847.7
538.228,845.7
538.364,848.3
538.5,845.9
538.636,848.7
538.772,847.2
538.908,847.5
539.044,850.2
539.18,856.3
539.316,864.0
539.452,861.3
539.588,855.1
539.724,853.6
539.86,846.2
539.996,844.1
540.132,841.4
540.268,844.0
540.403,841.7
540.539,838.8
540.675,838.5
540.811,839.4
540.947,840.8
541.083,845.1
541.219,845.3
541.355,847.8
541.49,849.5
541.626,846.0
541.762,842.0
541.898,840.5
542.034,842.4
542.17,839.2
542.305,838.2
542.441,838.6
542.577,838.9
542.713,840.1
542.848,841.0
542.984,840.4
543.12,840.2
543.256,845.8
543.391,849.9
543.527,873.7
543.663,912.7
543.799,913.7
543.934,878.5
544.07,859.5
544.206,848.9
544.341,847.3
544.477,844.7
544.613,841.6
544.748,842.9
544.884,843.6
545.02,846.8
545.155,852.5
545.291,867.0
545.427,871.7
545.562,863.2
545.698,851.9
545.833,843.1
545.969,841.1
546.105,837.6
546.24,838.7
546.376,839.3
546.511,837.6
546.647,838.3
546.782,839.4
546.918,840.5
547.053,842.1
547.189,842.7
547.325,848.1
547.46,854.8
547.596,857.9
547.731,853.1
547.867,847.9
548.002,843.7
548.137,840.3
548.273,840.4
548.408,838.9
548.544,839.5
548.679,837.3
548.815,836.5
548.95,837.1
549.086,835.7
549.221,833.6
549.356,836.0
549.492,834.6
549.627,836.7
549.763,836.6
549.898,835.5
550.033,834.5
550.169,834.0
550.304,836.2
550.439,833.4
550.575,835.5
550.71,835.7
550.845,833.8
550.981,833.6
551.116,835.3
551.251,835.5
551.387,835.1
551.522,835.1
551.657,835.0
551.793,836.8
551.928,835.3
552.063,836.3
552.198,835.0
552.334,835.0
552.469,835.9
552.604,834.8
552.739,834.1
552.874,836.3
553.01,836.6
553.145,836.7
553.28,837.6
553.415,837.0
553.55,834.9
553.686,835.2
553.821,837.0
553.956,835.1
554.091,836.9
554.226,835.9
554.361,836.3
554.497,839.7
554.632,838.0
554.767,840.5
554.902,840.0
555.037,838.2
555.172,841.7
555.307,841.5
555.442,844.4
555.577,849.4
555.712,858.1
555.848,875.3
555.983,944.1
556.118,1038.6
556.253,974.6
556.388,896.3
556.523,872.1
556.658,869.3
556.793,880.5
556.928,893.1
557.063,915.8
557.198,919.8
557.333,882.0
557.468,862.8
557.603,859.0
557.738,852.1
557.873,850.4
558.008,845.9
558.142,847.4
558.277,846.3
558.412,845.0
558.547,843.7
558.682,846.3
558.817,848.6
558.952,852.0
559.087,848.5
559.222,844.1
559.357,844.0
559.492,842.6
559.626,843.5
559.761,845.8
559.896,847.5
560.031,850.5
560.166,863.4
560.301,863.8
560.435,855.7
560.57,850.9
560.705,851.7
560.84,854.2
560.975,864.7
561.109,899.9
561.244,950.3
561.379,923.1
561.514,873.3
561.649,853.9
561.783,852.2
561.918,860.7
562.053,866.6
562.188,861.7
562.322,854.6
562.457,851.2
562.592,850.0
562.726,851.0
562.861,850.0
562.996,856.3
563.131,866.4
563.265,876.5
563.4,877.0
563.535,869.9
563.669,859.4
563.804,853.8
563.939,849.3
564.073,849.4
564.208,847.1
564.342,845.9
564.477,846.0
564.612,846.3
564.746,846.1
564.881,847.3
565.015,847.9
565.15,851.1
565.285,852.9
565.419,855.4
565.554,851.6
565.688,848.5
565.823,849.5
565.957,849.7
566.092,848.5
566.227,851.1
566.361,852.1
566.496,856.0
566.63,867.4
566.765,883.7
566.899,916.9
567.034,925.6
567.168,921.8
567.303,934.0
567.437,970.2
567.572,950.7
567.706,896.5
567.84,863.4
567.975,857.4
568.109,853.4
568.244,852.0
568.378,853.9
568.513,857.0
568.647,856.5
568.781,861.6
568.916,868.3
569.05,883.2
569.185,886.5
569.319,875.5
569.453,859.9
569.588,854.2
569.722,857.2
569.857,855.4
569.991,855.7
570.125,865.0
570.26,878.3
570.394,870.8
570.528,856.4
570.663,853.7
570.797,852.5
570.931,851.8
571.065,853.0
571.2,855.7
571.334,856.0
571.468,859.0
571.603,865.6
571.737,868.6
571.871,878.6
572.005,869.9
572.14,867.7
572.274,869.0
572.408,881.2
572.542,910.9
572.677,959.7
572.811,944.9
572.945,903.7
573.079,878.8
573.213,868.8
573.348,869.5
573.482,872.6
573.616,897.6
573.75,902.7
573.884,883.7
574.018,874.0
574.153,869.8
574.287,864.9
574.421,856.4
574.555,852.0
574.689,849.6
574.823,846.4
574.957,845.6
575.092,845.7
575.226,846.6
575.36,845.9
575.494,844.8
575.628,846.4
575.762,849.1
575.896,852.5
576.03,866.5
576.164,900.5
576.298,907.5
576.432,892.3
576.566,897.9
576.7,920.0
576.834,963.5
576.968,1005.0
577.103,994.3
577.237,942.9
577.371,891.3
577.505,870.6
577.639,855.6
577.773,852.0
577.907,850.0
578.04,849.0
578.174,847.8
578.308,846.5
578.442,845.5
578.576,844.5
578.71,848.3
578.844,844.4
578.978,844.2
579.112,845.1
579.246,842.5
579.38,843.9
579.514,843.8
579.648,845.4
579.782,842.5
579.916,844.0
580.049,843.4
580.183,845.2
580.317,842.5
580.451,841.4
580.585,844.3
580.719,839.5
580.853,840.0
580.986,841.6
581.12,841.3
581.254,843.6
581.388,841.9
581.522,839.2
581.656,841.9
581.789,842.7
581.923,841.3
582.057,842.6
582.191,843.5
582.325,844.7
582.458,844.2
582.592,840.3
582.726,843.8
582.86,842.5
582.993,842.4
583.127,842.3
583.261,843.7
583.395,843.0
583.528,842.2
583.662,841.8
583.796,842.3
583.93,841.3
584.063,842.4
584.197,840.8
584.331,841.7
584.464,843.4
584.598,844.1
584.732,842.6
584.865,842.9
584.999,840.5
585.133,841.8
585.266,843.6
585.4,842.4
585.534,842.0
585.667,842.5
585.801,840.7
585.935,840.4
586.068,841.6
586.202,840.3
586.336,841.4
586.469,842.2
586.603,840.4
586.736,841.4
586.87,841.7
587.004,839.9
587.137,841.1
587.271,839.7
587.404,840.7
587.538,840.2
587.671,841.8
587.805,839.4
587.938,839.4
588.072,839.3
588.206,839.6
588.339,841.1
588.473,840.8
588.606,839.6
588.74,839.4
588.873,840.4
589.007,838.4
589.14,838.4
589.274,839.2
589.407,838.5
589.541,836.5
589.674,838.4
589.808,840.8
589.941,838.6
590.074,839.3
590.208,838.1
590.341,839.3
590.475,840.9
590.608,840.2
590.742,839.3
590.875,838.9
591.009,838.6
591.142,838.9
591.275,839.4
591.409,838.0
591.542,839.3
591.676,839.7
591.809,841.0
591.942,839.2
592.076,838.2
592.209,838.9
592.342,839.8
592.476,838.6
592.609,839.4
592.743,839.1
592.876,839.3
593.009,838.6
593.143,838.4
593.276,838.8
593.409,838.6
593.543,840.5
593.676,838.7
593.809,837.9
593.942,838.8
594.076,838.8
594.209,836.8
594.342,839.3
594.476,838.8
594.609,839.1
594.742,838.3
594.875,839.0
595.009,839.0
595.142,838.2
595.275,837.8
595.408,837.0
595.542,838.4
595.675,840.9
595.808,841.2
595.941,839.0
596.075,838.8
596.208,838.8
596.341,838.3
596.474,839.0
596.607,836.7
596.741,840.8
596.874,840.0
597.007,840.8
597.14,840.2
597.273,840.1
597.406,840.0
597.54,838.0
597.673,839.1
597.806,838.4
597.939,840.6
598.072,838.5
598.205,839.6
598.338,839.8
598.472,839.8
598.605,840.8
598.738,838.0
598.871,841.7
599.004,839.4
599.137,839.6
599.27,839.0
599.403,839.5
599.536,838.2
599.67,839.5
599.803,839.5
599.936,840.5
600.069,839.9
600.202,839.9
600.335,839.4
600.468,840.0
600.601,838.6
600.734,840.5
600.867,838.8
601.0,838.9
601.133,839.8
601.266,838.2
601.399,840.1
601.532,839.0
601.665,839.0
601.798,838.2
601.931,839.1
602.064,839.4
602.197,836.0
602.33,840.0
602.463,840.2
602.596,840.3
602.729,838.2
602.862,839.6
602.995,839.8
603.128,840.5
603.261,837.9
603.394,841.6
603.527,839.2
603.66,838.7
603.793,841.5
603.925,839.6
604.058,841.9
604.191,840.2
604.324,840.8
604.457,840.8
604.59,841.5
604.723,840.7
604.856,840.1
604.989,840.8
605.122,840.5
605.254,843.3
605.387,841.3
605.52,840.9
605.653,841.5
605.786,839.4
605.919,839.7
606.052,841.9
606.184,840.7
606.317,842.4
606.45,843.2
606.583,842.8
606.716,843.4
606.849,842.9
606.981,841.9
607.114,842.4
607.247,840.9
607.38,842.2
607.513,842.5
607.645,841.8
607.778,842.4
607.911,842.9
608.044,841.5
608.177,841.7
608.309,839.8
608.442,840.1
608.575,843.9
608.708,842.0
608.84,839.8
608.973,841.2
609.106,841.6
609.239,841.9
609.371,841.5
609.504,839.8
609.637,840.1
609.769,841.8
609.902,841.0
610.035,840.1
610.168,840.7
610.3,841.7
610.433,840.6
610.566,840.7
610.698,841.6
610.831,839.1
610.964,843.0
611.096,840.8
611.229,841.4
611.362,841.5
611.494,842.0
611.627,842.3
611.76,842.1
611.892,840.8
612.025,842.1
612.158,842.7
612.29,842.4
612.423,841.0
612.556,842.5
612.688,841.0
612.821,843.5
612.953,842.3
613.086,842.1
613.219,842.5
613.351,841.1
613.484,838.8
613.616,840.5
613.749,842.9
613.882,842.5
614.014,839.5
614.147,842.5
614.279,842.5
614.412,842.2
614.544,843.5
614.677,842.9
614.809,843.0
614.942,844.2
615.075,843.7
615.207,843.8
615.34,843.3
615.472,844.8
615.605,842.6
615.737,843.3
615.87,841.0
616.002,841.3
616.135,843.9
616.267,843.9
616.4,845.3
616.532,842.9
616.665,843.6
616.797,844.8
616.93,843.8
617.062,844.0
617.195,845.1
617.327,846.3
617.46,847.1
617.592,845.1
617.725,845.3
617.857,847.0
617.989,845.2
618.122,846.0
618.254,846.8
618.387,846.0
618.519,844.2
618.652,847.1
618.784,847.2
618.917,846.3
619.049,849.0
619.181,849.4
619.314,850.4
619.446,851.6
619.579,852.1
619.711,853.0
619.843,855.5
619.976,852.8
620.108,852.0
620.241,854.7
620.373,851.1
620.505,852.8
620.638,852.2
620.77,851.4
620.902,850.3
621.035,852.1
621.167,854.6
621.299,855.6
621.432,856.9
621.564,861.0
621.696,863.1
621.829,869.6
621.961,876.7
622.093,881.6
622.226,894.1
622.358,905.2
622.49,901.7
622.623,885.8
622.755,878.8
622.887,875.6
623.02,869.2
623.152,864.9
623.284,862.1
623.416,858.4
623.549,859.9
623.681,857.1
623.813,856.1
623.946,854.9
624.078,853.4
624.21,850.2
624.342,850.6
624.475,848.4
624.607,850.5
624.739,852.0
624.871,854.8
625.004,852.6
625.136,854.6
625.268,853.2
625.4,856.0
625.533,855.1
625.665,857.3
625.797,861.3
625.929,866.6
626.061,866.9
626.194,875.5
626.326,886.4
626.458,906.4
626.59,939.6
626.722,1019.9
626.855,1107.9
626.987,1167.9
627.119,1122.8
627.251,1047.6
627.383,994.4
627.516,972.0
627.648,990.5
627.78,1064.3
627.912,1204.6
628.044,1320.0
628.176,1332.4
628.308,1336.1
628.441,1404.6
628.573,1493.0
628.705,1524.5
628.837,1483.1
628.969,1401.9
629.101,1337.9
629.233,1304.8
629.366,1318.2
629.498,1339.6
629.63,1329.3
629.762,1279.7
629.894,1225.3
630.026,1207.3
630.158,1213.5
630.29,1219.4
630.422,1208.2
630.554,1146.5
630.687,1084.0
630.819,1040.0
630.951,1021.0
631.083,1047.5
631.215,1119.4
631.347,1210.7
631.479,1266.3
631.611,1302.2
631.743,1366.2
631.875,1343.9
632.007,1268.0
632.139,1176.4
632.271,1070.3
632.403,994.4
632.535,942.1
632.667,915.8
632.799,897.5
632.931,882.3
633.063,877.6
633.195,869.8
633.328,866.6
633.46,861.3
633.592,857.6
633.724,859.1
633.856,853.7
633.988,852.7
634.12,850.7
634.252,850.9
634.384,850.0
634.516,847.9
634.647,847.4
634.779,846.5
634.911,845.1
635.043,846.6
635.175,844.3
635.307,845.7
635.439,843.5
635.571,844.4
635.703,845.9
635.835,843.7
635.967,843.4
636.099,841.8
636.231,843.5
636.363,842.0
636.495,842.9
636.627,840.5
636.759,841.9
636.891,842.6
637.023,841.5
637.155,842.7
637.286,841.4
637.418,842.4
637.55,841.3
637.682,841.7
637.814,842.1
637.946,840.8
638.078,841.3
638.21,841.6
638.342,841.4
638.474,844.6
638.605,844.2
638.737,844.4
638.869,841.7
639.001,844.9
639.133,843.6
639.265,842.3
639.397,843.0
639.529,841.4
639.66,842.3
639.792,841.0
639.924,843.8
640.056,841.8
640.188,842.2
640.32,841.3
640.452,843.4
640.583,842.4
640.715,841.3
640.847,843.7
640.979,844.7
641.111,843.8
641.243,844.1
641.374,844.6
641.506,841.8
641.638,844.9
641.77,843.4
641.902,841.5
642.033,842.1
642.165,842.8
642.297,842.4
642.429,840.6
642.561,841.3
642.692,841.7
642.824,839.3
642.956,838.9
643.088,838.9
643.22,840.8
643.351,839.4
643.483,838.5
643.615,838.3
643.747,838.7
643.878,839.3
644.01,838.4
644.142,838.9
644.274,838.3
644.405,839.1
644.537,837.6
644.669,838.8
644.801,837.8
644.932,838.0
645.064,838.5
645.196,837.7
645.328,837.6
645.459,839.3
645.591,836.4
645.723,837.5
645.854,837.1
645.986,835.3
646.118,836.4
646.25,835.9
646.381,836.9
646.513,838.7
646.645,836.8
646.776,835.8
646.908,837.2
647.04,838.2
647.172,837.8
647.303,836.5
647.435,837.8
647.567,836.0
647.698,837.7
647.83,837.4
647.962,838.3
648.093,837.1
648.225,836.9
648.357,836.5
648.488,837.6
648.62,837.2
648.752,837.4
648.883,835.0
649.015,838.5
649.147,836.8
649.278,835.1
649.41,837.3
649.542,836.7
649.673,836.4
649.805,836.0
649.937,836.3
650.068,835.0
650.2,837.9
650.331,835.9
650.463,836.3
650.595,835.1
650.726,836.8
650.858,834.8
650.99,836.8
651.121,837.0
651.253,838.2
651.384,834.9
651.516,835.5
651.648,836.7
651.779,836.8
651.911,836.2
652.042,835.7
652.174,836.7
652.306,834.7
652.437,835.9
652.569,836.8
652.7,835.1
652.832,836.7
652.963,836.8
653.095,835.2
653.227,835.6
653.358,835.0
653.49,835.9
653.621,836.3
653.753,834.9
653.884,834.4
654.016,834.6
654.148,834.9
654.279,833.4
654.411,835.7
654.542,837.0
654.674,835.1
654.805,834.8
654.937,835.1
655.068,834.9
655.2,834.9
655.331,835.8
655.463,837.0
655.595,834.5
655.726,834.4
655.858,836.1
655.989,835.1
656.121,833.7
656.252,835.7
656.384,835.3
656.515,835.2
656.647,835.6
656.778,835.9
656.91,834.8
657.041,835.1
657.173,834.3
657.304,835.4
657.436,835.6
657.567,834.4
657.699,834.9
657.83,834.0
657.962,834.4
658.093,836.1
658.225,834.8
658.356,833.7
658.488,835.0
658.619,835.3
658.751,835.1
658.882,836.6
659.013,835.1
659.145,834.7
659.276,835.3
659.408,834.6
659.539,837.0
659.671,836.5
659.802,835.3
659.934,836.2
660.065,836.9
660.197,833.5
660.328,834.7
660.459,834.9
660.591,833.3
660.722,832.9
660.854,836.5
660.985,835.3
661.117,837.6
661.248,835.0
661.38,835.0
661.511,834.2
661.642,834.5
661.774,833.2
661.905,834.6
662.037,833.7
662.168,834.5
662.299,835.0
662.431,834.7
662.562,833.6
662.694,834.3
662.825,833.9
662.957,834.7
663.088,834.6
