nm,Intensity
526.547,830.9
526.683,832.9
526.82,831.4
526.957,833.0
527.094,830.8
527.23,832.4
527.367,831.7
527.504,831.8
527.641,831.6
527.777,834.4
527.914,832.5
528.051,832.5
528.188,832.4
528.324,834.2
528.461,832.5
528.598,833.6
528.734,831.9
528.871,832.4
529.008,832.9
529.144,832.7
529.281,831.2
529.417,831.9
529.554,832.4
529.691,832.4
529.827,832.3
529.964,833.8
530.1,831.4
530.237,833.5
530.373,831.3
530.51,833.3
530.647,829.9
530.783,833.1
530.92,832.9
531.056,833.0
531.193,832.7
531.329,833.0
531.466,832.9
531.602,832.4
531.738,833.5
531.875,832.7
532.011,840.0
532.148,869.4
532.284,864.0
532.421,837.9
532.557,833.2
532.693,830.6
532.83,832.3
532.966,831.5
533.103,831.7
533.239,833.3
533.375,832.2
533.512,833.1
533.648,831.7
533.784,837.5
533.921,865.9
534.057,889.8
534.193,890.1
534.33,886.9
534.466,887.1
534.602,885.8
534.738,895.6
534.875,898.6
535.011,903.2
535.147,907.4
535.283,906.6
535.42,891.2
535.556,878.9
535.692,871.4
535.828,865.3
535.964,861.7
536.101,858.7
536.237,857.3
536.373,856.9
536.509,859.0
536.645,859.5
536.781,863.7
536.917,876.1
537.054,878.4
537.19,882.0
537.326,876.3
537.462,868.4
537.598,861.9
537.734,858.9
537.87,858.0
538.006,855.9
538.142,857.8
538.278,854.1
538.414,858.5
538.55,855.8
538.686,856.5
538.822,854.1
538.958,856.8
539.094,861.0
539.23,867.5
539.366,865.5
539.502,867.3
539.638,862.6
539.774,857.3
539.91,854.4
540.046,852.4
540.182,849.7
540.318,849.9
540.454,847.7
540.59,848.2
540.726,848.6
540.862,849.0
540.997,847.8
541.133,849.7
541.269,854.8
541.405,859.6
541.541,856.2
541.677,855.5
541.812,851.4
541.948,849.1
542.084,848.7
542.22,846.9
542.356,845.6
542.492,846.9
542.627,845.7
542.763,848.0
542.899,846.9
543.035,849.2
543.17,849.7
543.306,855.5
543.442,865.8
543.578,894.6
543.713,925.7
543.849,906.1
543.985,877.9
544.12,863.4
544.256,857.5
544.392,855.5
544.527,850.6
544.663,852.1
544.799,853.6
544.934,852.3
545.07,855.8
545.206,862.3
545.341,873.3
545.477,872.0
545.612,866.3
545.748,856.7
545.884,851.7
546.019,853.4
546.155,851.1
546.29,846.6
546.426,847.8
546.562,845.9
546.697,848.4
546.833,846.9
546.968,849.9
547.104,850.3
547.239,852.0
547.375,858.9
547.51,864.7
547.646,865.0
547.781,858.4
547.917,854.5
548.052,850.1
548.188,849.9
548.323,848.1
548.458,847.4
548.594,846.2
548.729,844.5
548.865,847.1
549.0,843.5
549.136,844.5
549.271,846.0
549.406,844.3
549.542,844.4
549.677,842.2
549.812,843.5
549.948,843.3
550.083,844.0
550.219,844.4
550.354,843.2
550.489,840.8
550.625,843.2
550.76,842.8
550.895,844.9
551.03,846.4
551.166,842.9
551.301,844.7
551.436,843.3
551.572,844.7
551.707,842.3
551.842,843.1
551.977,844.0
552.113,844.8
552.248,844.1
552.383,844.8
552.518,846.3
552.654,841.9
552.789,845.7
552.924,843.3
553.059,846.0
553.194,845.6
553.329,843.7
553.465,842.9
553.6,845.6
553.735,846.8
553.87,844.3
554.005,842.4
554.14,846.7
554.276,844.4
554.411,846.2
554.546,847.2
554.681,847.0
554.816,849.7
554.951,849.5
555.086,847.5
555.221,850.6
555.356,851.6
555.491,854.9
555.626,859.5
555.761,870.7
555.896,895.0
556.031,983.1
556.167,1029.4
556.302,948.6
556.437,889.8
556.572,880.5
556.707,884.3
556.842,892.6
556.977,914.5
557.112,939.8
557.246,920.5
557.381,885.2
557.516,872.2
557.651,865.8
557.786,863.1
557.921,857.6
558.056,855.0
558.191,858.7
558.326,854.6
558.461,854.3
558.596,855.8
558.731,858.8
558.866,862.1
559.0,863.3
559.135,859.8
559.27,855.2
559.405,855.3
559.54,853.9
559.675,855.0
559.81,857.5
559.944,858.4
560.079,865.5
560.214,878.7
560.349,873.0
560.484,864.8
560.618,860.4
560.753,861.6
560.888,865.0
561.023,878.1
561.158,919.8
561.292,948.7
561.427,907.6
561.562,870.8
561.697,864.7
561.831,866.7
561.966,877.7
562.101,884.0
562.235,871.5
562.37,863.9
562.505,862.4
562.64,860.9
562.774,864.5
562.909,863.9
563.044,871.6
563.178,882.0
563.313,884.7
563.448,884.3
563.582,879.5
563.717,866.0
563.852,860.4
563.986,859.2
564.121,857.9
564.255,859.1
564.39,856.5
564.525,856.3
564.659,857.5
564.794,858.5
564.928,859.6
565.063,859.3
565.198,863.1
565.332,863.5
565.467,866.5
565.601,861.9
565.736,861.0
565.87,859.7
566.005,860.6
566.139,861.4
566.274,859.5
566.408,862.6
566.543,868.2
566.677,881.7
566.812,912.0
566.946,935.7
567.081,941.1
567.215,933.2
567.35,950.9
567.484,962.3
567.619,933.1
567.753,888.1
567.887,869.1
568.022,864.5
568.156,865.3
568.291,862.0
568.425,864.4
568.56,865.5
568.694,869.1
568.828,874.5
568.963,887.1
569.097,901.7
569.231,897.5
569.366,879.8
569.5,870.3
569.635,866.4
569.769,865.1
569.903,866.1
570.038,868.6
570.172,879.0
570.306,885.8
570.441,875.0
570.575,866.2
570.709,864.4
570.843,861.7
570.978,863.1
571.112,866.3
571.246,865.4
571.381,869.1
571.515,876.1
571.649,877.2
571.783,880.6
571.918,884.2
572.052,877.8
572.186,877.0
572.32,886.2
572.455,901.5
572.589,939.4
572.723,980.3
572.857,954.0
572.991,904.7
573.126,885.4
573.26,879.9
573.394,881.9
573.528,895.8
573.662,917.9
573.796,911.1
573.931,896.6
574.065,882.7
574.199,882.2
574.333,877.3
574.467,871.1
574.601,864.6
574.735,861.1
574.869,861.9
575.004,862.7
575.138,860.3
575.272,860.2
575.406,863.2
575.54,861.8
575.674,861.8
575.808,867.1
575.942,871.0
576.076,892.6
576.21,925.8
576.344,915.5
576.478,913.5
576.612,921.4
576.746,949.4
576.88,995.1
577.014,1027.0
577.148,999.2
577.282,939.4
577.416,896.1
577.55,881.5
577.684,870.3
577.818,864.7
577.952,864.4
578.086,862.9
578.22,858.6
578.354,859.4
578.488,862.7
578.622,859.8
578.756,859.1
578.89,858.2
579.024,860.8
579.158,860.2
579.292,856.9
579.426,856.2
579.559,857.8
579.693,857.7
579.827,857.4
579.961,857.0
580.095,858.1
580.229,859.6
580.363,857.4
580.497,860.4
580.63,857.0
580.764,857.6
580.898,857.7
581.032,857.1
581.166,856.7
581.3,854.8
581.433,856.9
581.567,855.5
581.701,857.3
581.835,858.1
581.969,857.7
582.102,855.9
582.236,856.3
582.37,857.8
582.504,855.8
582.637,854.5
582.771,858.6
582.905,858.7
583.039,857.0
583.172,857.9
583.306,856.6
583.44,857.9
583.574,856.1
583.707,856.5
583.841,858.1
583.975,858.1
584.108,857.5
584.242,858.7
584.376,857.7
584.51,859.0
584.643,857.9
584.777,859.1
584.911,858.3
585.044,857.2
585.178,857.7
585.312,859.6
585.445,856.3
585.579,857.7
585.712,856.3
585.846,855.6
585.98,855.8
586.113,857.2
586.247,854.8
586.381,859.6
586.514,856.1
586.648,858.2
586.781,854.7
586.915,857.3
587.048,855.8
587.182,854.4
587.316,856.8
587.449,858.7
587.583,855.0
587.716,856.8
587.85,857.0
587.983,855.3
588.117,854.8
588.25,856.3
588.384,856.9
588.517,853.8
588.651,855.9
588.784,856.4
588.918,855.6
589.051,853.7
589.185,855.1
589.318,856.2
589.452,854.8
589.585,855.2
589.719,857.1
589.852,856.7
589.986,858.2
590.119,856.1
590.253,857.2
590.386,856.0
590.519,856.0
590.653,855.6
590.786,855.9
590.92,854.3
591.053,856.2
591.187,855.8
591.32,853.2
591.453,854.5
591.587,854.7
591.72,855.8
591.853,856.0
591.987,855.0
592.12,855.2
592.254,853.9
592.387,855.6
592.52,855.0
592.654,855.4
592.787,853.6
592.92,853.8
593.054,856.0
593.187,854.6
593.32,853.6
593.454,854.1
593.587,853.8
593.72,854.4
593.853,856.5
593.987,852.6
594.12,854.0
594.253,855.2
594.387,853.4
594.52,853.9
594.653,854.9
594.786,854.4
594.92,853.4
595.053,853.8
595.186,851.8
595.319,852.5
595.453,852.6
595.586,854.8
595.719,853.1
595.852,852.6
595.985,854.0
596.119,852.4
596.252,852.0
596.385,853.5
596.518,855.8
596.651,854.5
596.785,854.8
596.918,852.8
597.051,854.8
597.184,854.3
597.317,851.4
597.45,853.9
597.584,856.2
597.717,853.6
597.85,854.3
597.983,855.9
598.116,853.2
598.249,853.3
598.382,853.7
598.516,856.5
598.649,853.3
598.782,854.0
598.915,854.3
599.048,852.7
599.181,853.4
599.314,854.0
599.447,853.0
599.58,855.5
599.713,855.7
599.846,852.2
599.979,853.1
600.113,854.9
600.246,854.3
600.379,856.0
600.512,853.2
600.645,855.3
600.778,854.5
600.911,852.9
601.044,853.0
601.177,855.2
601.31,854.5
601.443,853.8
601.576,854.1
601.709,853.0
601.842,854.6
601.975,852.4
602.108,851.5
602.241,853.8
602.374,855.6
602.507,852.8
602.64,854.4
602.773,854.2
602.905,853.0
603.038,853.1
603.171,852.9
603.304,853.5
603.437,853.3
603.57,856.9
603.703,855.3
603.836,853.6
603.969,854.8
604.102,854.4
604.235,855.6
604.368,852.4
604.501,854.2
604.633,855.7
604.766,853.7
604.899,856.1
605.032,855.4
605.165,856.0
605.298,853.7
605.431,855.4
605.563,852.4
605.696,853.4
605.829,851.7
605.962,855.2
606.095,852.8
606.228,854.4
606.36,855.5
606.493,854.7
606.626,855.7
606.759,856.3
606.892,858.6
607.025,857.6
607.157,853.1
607.29,855.4
607.423,854.4
607.556,856.9
607.688,853.8
607.821,857.5
607.954,855.4
608.087,853.6
608.219,853.6
608.352,855.2
608.485,853.6
608.618,853.5
608.75,853.7
608.883,853.6
609.016,855.0
609.149,855.4
609.281,854.2
609.414,855.4
609.547,854.4
609.68,853.0
609.812,855.6
609.945,854.7
610.078,855.0
610.21,855.9
610.343,853.6
610.476,853.4
610.608,854.9
610.741,855.7
610.874,854.7
611.006,853.0
611.139,854.8
611.272,853.6
611.404,857.1
611.537,853.8
611.67,854.0
611.802,856.0
611.935,854.5
612.067,855.4
612.2,854.9
612.333,854.2
612.465,854.9
612.598,853.6
612.731,854.3
612.863,852.7
612.996,854.5
613.128,855.5
613.261,855.7
613.393,854.9
613.526,855.3
613.659,854.8
613.791,855.9
613.924,856.7
614.056,855.3
614.189,856.1
614.321,855.1
614.454,856.0
614.586,856.9
614.719,856.9
614.852,858.5
614.984,857.1
615.117,857.3
615.249,858.7
615.382,857.4
615.514,859.1
615.647,858.8
615.779,857.1
615.912,859.4
616.044,857.7
616.177,856.2
616.309,856.6
616.442,857.4
616.574,857.2
616.707,858.1
616.839,858.8
616.971,862.0
617.104,861.0
617.236,860.8
617.369,858.8
617.501,860.4
617.634,859.2
617.766,864.4
617.899,859.9
618.031,861.2
618.163,861.6
618.296,862.8
618.428,861.6
618.561,862.2
618.693,862.1
618.826,863.1
618.958,862.7
619.09,860.0
619.223,866.4
619.355,865.6
619.487,868.1
619.62,867.6
619.752,869.4
619.885,869.4
620.017,870.5
620.149,867.6
620.282,867.5
620.414,866.2
620.546,868.7
620.679,869.3
620.811,869.4
620.943,868.9
621.076,870.8
621.208,870.8
621.34,874.7
621.473,874.9
621.605,877.8
621.737,882.1
621.87,890.0
622.002,889.9
622.134,902.5
622.267,909.5
622.399,922.8
622.531,912.3
622.663,903.4
622.796,892.5
622.928,887.1
623.06,884.3
623.193,881.4
623.325,878.8
623.457,877.1
623.589,873.0
623.722,872.0
623.854,871.0
623.986,871.0
624.118,867.9
624.251,867.7
624.383,866.1
624.515,865.0
624.647,868.6
624.78,867.2
624.912,867.6
625.044,872.6
625.176,873.5
625.308,874.4
625.441,874.2
625.573,875.1
625.705,878.8
625.837,880.6
625.969,880.9
626.102,889.6
626.234,896.6
626.366,909.0
626.498,935.9
626.63,982.9
626.762,1071.4
626.895,1159.5
627.027,1169.6
627.159,1113.2
627.291,1044.0
627.423,1002.3
627.555,989.5
627.687,1023.8
627.82,1127.8
627.952,1273.6
628.084,1351.6
628.216,1361.7
628.348,1390.5
628.48,1464.9
628.612,1546.9
628.744,1556.2
628.877,1494.8
629.009,1411.9
629.141,1350.8
629.273,1333.7
629.405,1352.4
629.537,1377.6
629.669,1332.0
629.801,1279.4
629.933,1230.2
630.065,1230.6
630.197,1233.8
630.33,1243.7
630.462,1214.7
630.594,1151.2
630.726,1093.8
630.858,1050.1
630.99,1049.0
631.122,1084.9
631.254,1170.6
631.386,1253.6
631.518,1288.8
631.65,1319.8
631.782,1334.4
631.914,1294.8
632.046,1216.8
632.178,1128.1
632.31,1043.3
632.442,985.3
632.574,950.2
632.706,925.9
632.838,906.3
632.97,898.1
633.102,890.7
633.234,883.5
633.366,880.6
633.498,880.5
633.63,874.1
633.762,872.8
633.894,869.7
634.026,869.9
634.158,868.2
634.29,865.8
634.422,864.5
634.554,864.4
634.686,863.7
634.818,862.6
634.95,863.4
635.082,861.9
635.214,859.7
635.346,859.6
635.477,860.6
635.609,858.8
635.741,860.0
635.873,860.5
636.005,859.2
636.137,858.4
636.269,858.0
636.401,857.8
636.533,860.2
636.665,859.1
636.797,854.9
636.929,857.5
637.06,857.9
637.192,854.4
637.324,858.1
637.456,857.1
637.588,858.5
637.72,858.6
637.852,855.6
637.984,858.8
638.115,858.5
638.247,860.8
638.379,859.2
638.511,858.6
638.643,859.0
638.775,858.4
638.907,857.9
639.039,860.9
639.17,856.8
639.302,859.0
639.434,857.5
639.566,858.2
639.698,858.1
639.83,858.3
639.961,857.9
640.093,858.5
640.225,857.2
640.357,856.9
640.489,857.3
640.62,860.3
640.752,857.8
640.884,858.6
641.016,857.5
641.148,859.3
641.279,858.0
641.411,857.7
641.543,859.5
641.675,859.8
641.807,857.9
641.938,858.1
642.07,855.9
642.202,857.2
642.334,855.9
642.466,857.0
642.597,857.2
642.729,854.2
642.861,854.3
642.993,851.4
643.124,854.6
643.256,853.1
643.388,850.2
643.52,852.4
643.651,851.5
643.783,849.9
643.915,850.1
644.047,853.3
644.178,852.9
644.31,853.0
644.442,851.1
644.574,851.9
644.705,851.2
644.837,854.3
644.969,852.2
645.1,852.5
645.232,851.5
645.364,850.4
645.496,850.3
645.627,848.7
645.759,851.8
645.891,852.4
646.022,851.5
646.154,849.8
646.286,851.9
646.417,850.3
646.549,850.3
646.681,849.3
646.812,849.8
646.944,851.8
647.076,850.9
647.207,851.6
647.339,852.0
647.471,849.8
647.602,850.8
647.734,850.3
647.866,851.7
647.997,850.4
648.129,850.5
648.261,850.5
648.392,850.2
648.524,850.5
648.656,849.2
648.787,849.3
648.919,851.6
649.051,851.7
649.182,849.8
649.314,851.0
649.446,848.9
649.577,849.6
649.709,848.9
649.84,849.3
649.972,847.5
650.104,848.2
650.235,848.6
650.367,850.5
650.498,849.1
650.63,847.5
650.762,849.9
650.893,849.1
651.025,848.9
651.157,850.6
651.288,848.4
651.42,847.7
651.551,846.8
651.683,849.2
651.814,849.2
651.946,847.6
652.078,848.5
652.209,846.5
652.341,847.2
652.472,848.6
652.604,848.5
652.736,848.4
652.867,848.1
652.999,848.8
653.13,848.8
653.262,847.3
653.393,849.8
653.525,846.1
653.656,848.9
653.788,845.9
653.92,848.1
654.051,848.0
654.183,847.3
654.314,844.1
654.446,848.7
654.577,848.7
654.709,845.4
654.84,845.6
654.972,847.2
655.103,844.7
655.235,845.8
655.366,847.9
655.498,847.4
655.63,847.0
655.761,848.0
655.893,847.7
656.024,845.0
656.156,845.6
656.287,848.8
656.419,846.2
656.55,845.0
656.682,846.6
656.813,847.8
656.945,846.0
657.076,849.7
657.208,848.2
657.339,847.9
657.471,847.7
657.602,844.9
657.734,844.7
657.865,845.9
657.997,847.3
658.128,847.1
658.26,845.4
658.391,845.4
658.522,845.3
658.654,847.1
658.785,845.3
658.917,846.4
659.048,846.9
659.18,845.8
659.311,846.3
659.443,847.9
659.574,845.5
659.706,845.5
659.837,842.8
659.969,844.9
660.1,844.8
660.232,845.5
660.363,844.3
660.494,845.4
660.626,846.9
660.757,845.7
660.889,847.5
661.02,844.2
661.152,844.0
661.283,845.9
661.415,846.1
661.546,846.9
661.677,844.4
661.809,845.1
661.94,846.9
662.072,846.7
662.203,845.4
662.335,844.9
662.466,844.7
662.597,844.4
662.729,845.2
662.86,845.0
662.992,844.2
663.123,844.8
