nm,Intensity
791.75,4973.15
792.024,4911.9
792.298,4841.05
792.572,4815.4
792.846,4800.75
793.12,4787.7
793.394,4793.3
793.668,4769.15
793.942,4764.05
794.215,4768.4
794.489,4791.25
794.763,4814.0
795.037,4780.9
795.311,4790.85
795.585,4803.8
795.859,4790.6
796.133,4774.35
796.407,4762.25
796.681,4763.3
796.955,4725.55
797.228,4711.7
797.502,4705.85
797.776,4714.4
798.05,4697.2
798.324,4687.65
798.598,4717.85
798.871,4695.65
799.145,4691.45
799.419,4712.3
799.693,4691.65
799.967,4683.95
800.241,4681.25
800.514,4698.1
800.788,4710.3
801.062,4689.7
801.336,4655.8
801.61,4645.4
801.883,4653.8
802.157,4697.3
802.431,4708.75
802.705,4686.85
802.978,4644.45
803.252,4652.45
803.526,4642.6
803.8,4608.45
804.073,4617.25
804.347,4631.4
804.621,4641.15
804.894,4635.1
805.168,4618.4
805.442,4622.4
805.715,4630.5
805.989,4595.05
806.263,4598.9
806.536,4591.7
806.81,4567.3
807.084,4562.4
807.357,4561.35
807.631,4577.9
807.905,4582.05
808.178,4589.05
808.452,4553.8
808.726,4559.2
808.999,4547.2
809.273,4590.45
809.546,4633.95
809.82,4648.95
810.094,4680.7
810.367,4669.7
810.641,4605.85
810.914,4566.45
811.188,4554.95
811.461,4524.15
811.735,4515.9
812.008,4525.2
812.282,4532.3
812.556,4521.55
812.829,4527.2
813.103,4513.5
813.376,4522.95
813.65,4525.85
813.923,4518.75
814.197,4512.55
814.47,4501.9
814.744,4480.0
815.017,4467.55
815.29,4447.4
815.564,4454.4
815.837,4453.5
816.111,4452.7
816.384,4445.8
816.658,4443.65
816.931,4427.75
817.205,4431.05
817.478,4424.1
817.751,4439.6
818.025,4455.75
818.298,4446.5
818.572,4438.55
818.845,4427.1
819.118,4429.5
819.392,4421.4
819.665,4398.7
819.938,4398.15
820.212,4412.85
820.485,4403.05
820.758,4402.55
821.032,4397.0
821.305,4384.65
821.578,4368.5
821.852,4363.5
822.125,4354.75
822.398,4358.25
822.672,4358.35
822.945,4345.15
823.218,4373.0
823.491,4359.35
823.765,4358.15
824.038,4355.05
824.311,4348.85
824.585,4353.95
824.858,4359.5
825.131,4332.75
825.404,4316.6
825.677,4330.4
825.951,4356.8
826.224,4350.05
826.497,4323.4
826.77,4323.95
827.043,4312.85
827.317,4306.15
827.59,4302.65
827.863,4312.0
828.136,4310.25
828.409,4311.55
828.682,4319.95
828.956,4322.1
829.229,4307.05
829.502,4299.15
829.775,4291.1
830.048,4286.2
830.321,4292.8
830.594,4303.6
830.867,4295.9
831.14,4315.2
831.413,4295.0
831.687,4288.05
831.96,4284.5
832.233,4285.5
832.506,4278.45
832.779,4275.9
833.052,4297.45
833.325,4287.5
833.598,4281.65
833.871,4273.4
834.144,4278.2
834.417,4280.9
834.69,4263.75
834.963,4265.85
835.236,4275.65
835.509,4260.15
835.782,4270.2
836.055,4270.6
836.328,4283.6
836.601,4276.0
836.874,4291.35
837.147,4341.1
837.419,4389.4
837.692,4420.55
837.965,4397.85
838.238,4372.7
838.511,4334.25
838.784,4305.4
839.057,4299.75
839.33,4323.85
839.603,4347.95
839.876,4368.65
840.148,4369.55
840.421,4346.3
840.694,4310.45
840.967,4269.05
841.24,4255.0
841.513,4245.65
841.785,4262.45
842.058,4241.75
842.331,4235.3
842.604,4239.65
842.877,4231.05
843.149,4234.95
843.422,4220.95
843.695,4230.05
843.968,4241.6
844.24,4238.6
844.513,4233.85
844.786,4217.6
845.059,4207.75
845.331,4222.0
845.604,4213.75
845.877,4211.6
846.15,4211.25
846.422,4200.9
846.695,4213.85
846.968,4217.8
847.24,4225.75
847.513,4221.25
847.786,4217.2
848.058,4218.0
848.331,4218.45
848.604,4224.15
848.876,4229.35
849.149,4240.4
849.421,4250.05
849.694,4245.8
849.967,4228.2
850.239,4206.2
850.512,4215.0
850.784,4216.75
851.057,4223.7
851.33,4233.2
851.602,4219.9
851.875,4222.3
852.147,4197.85
852.42,4195.35
852.692,4199.2
852.965,4196.2
853.237,4199.1
853.51,4205.6
853.782,4210.15
854.055,4215.75
854.327,4189.9
854.6,4185.8
854.872,4191.6
855.145,4186.2
855.417,4184.2
855.69,4163.15
855.962,4159.05
856.235,4167.6
856.507,4173.75
856.779,4189.6
857.052,4224.05
857.324,4235.45
857.597,4241.4
857.869,4236.6
858.142,4201.5
858.414,4183.25
858.686,4174.55
858.959,4158.35
859.231,4163.45
859.503,4159.75
859.776,4150.05
860.048,4148.0
860.32,4145.05
860.593,4153.5
860.865,4154.3
861.137,4162.9
861.41,4159.6
861.682,4186.45
861.954,4222.95
862.226,4229.6
862.499,4225.25
862.771,4228.65
863.043,4234.6
863.315,4225.65
863.588,4208.05
863.86,4168.7
864.132,4162.65
864.404,4161.5
864.677,4162.1
864.949,4150.75
865.221,4135.2
865.493,4132.7
865.765,4134.65
866.038,4124.4
866.31,4126.25
866.582,4142.15
866.854,4155.85
867.126,4156.2
867.398,4159.9
867.67,4149.9
867.943,4152.15
868.215,4131.1
868.487,4129.0
868.759,4119.3
869.031,4111.05
869.303,4117.75
869.575,4122.8
869.847,4129.5
870.119,4124.0
870.391,4114.8
870.663,4125.95
870.935,4120.35
871.207,4114.7
871.479,4119.0
871.751,4128.3
872.023,4115.95
872.295,4103.0
872.567,4120.6
872.839,4124.95
873.111,4130.4
873.383,4113.65
873.655,4133.5
873.927,4131.75
874.199,4124.1
874.471,4134.4
874.743,4141.3
875.015,4145.85
875.287,4157.0
875.559,4170.7
875.831,4186.15
876.103,4182.55
876.374,4172.95
876.646,4148.7
876.918,4140.7
877.19,4120.05
877.462,4116.65
877.734,4125.05
878.006,4122.55
878.277,4110.1
878.549,4113.0
878.821,4109.25
879.093,4103.15
879.365,4102.85
879.636,4083.9
879.908,4077.05
880.18,4066.1
880.452,4063.7
880.723,4067.85
880.995,4063.85
881.267,4055.55
881.539,4054.15
881.81,4058.55
882.082,4061.05
882.354,4057.65
882.626,4059.15
882.897,4054.3
883.169,4072.75
883.441,4079.65
883.712,4085.0
883.984,4086.9
884.256,4102.5
884.527,4105.95
884.799,4126.6
885.07,4140.05
885.342,4160.35
885.614,4172.9
885.885,4158.55
886.157,4132.2
886.428,4111.25
886.7,4097.05
886.972,4077.25
887.243,4060.1
887.515,4050.45
887.786,4046.9
888.058,4036.7
888.329,4022.25
888.601,4014.45
888.872,4008.75
889.144,4012.5
889.415,4008.75
889.687,4010.5
889.958,4011.75
890.23,4009.45
890.501,4011.75
890.773,4016.9
891.044,4019.6
891.316,4018.2
891.587,4021.45
891.859,4015.95
892.13,4017.65
892.401,4006.55
892.673,3996.65
892.944,3990.8
893.216,3994.5
893.487,3987.25
893.758,3988.75
894.03,3978.7
894.301,3976.4
894.572,3975.4
894.844,3988.0
895.115,3980.35
895.386,3976.35
895.658,3971.1
895.929,3970.5
896.2,3966.25
896.472,3968.25
896.743,3967.15
897.014,3968.95
897.285,3964.75
897.557,3965.3
897.828,3966.3
898.099,3954.75
898.37,3954.0
898.642,3952.55
898.913,3950.45
899.184,3953.05
899.455,3951.9
899.726,3947.5
899.998,3946.7
900.269,3946.75
900.54,3950.35
900.811,3940.7
901.082,3940.1
901.353,3939.8
901.625,3944.85
901.896,3946.6
902.167,3929.15
902.438,3926.7
902.709,3930.1
902.98,3932.2
903.251,3936.25
903.522,3932.95
903.793,3933.3
904.064,3924.75
904.335,3921.65
904.606,3928.95
904.877,3921.45
905.148,3922.1
905.419,3918.1
905.69,3904.9
905.961,3912.9
906.232,3906.25
906.503,3908.3
906.774,3908.65
907.045,3905.15
907.316,3908.95
907.587,3905.15
907.858,3905.0
908.129,3902.75
908.4,3905.05
908.671,3903.1
908.942,3902.55
909.213,3896.95
909.484,3893.8
909.755,3892.45
910.025,3892.75
910.296,3890.45
910.567,3895.55
910.838,3895.25
911.109,3890.75
911.38,3886.2
911.65,3887.0
911.921,3888.85
912.192,3886.85
912.463,3882.0
912.734,3882.7
913.004,3876.6
913.275,3881.1
913.546,3881.95
913.817,3880.8
914.087,3879.9
914.358,3875.3
914.629,3873.6
914.9,3868.15
915.17,3870.55
915.441,3872.4
915.712,3871.45
915.982,3866.2
916.253,3867.75
916.524,3866.25
916.794,3862.0
917.065,3863.2
917.336,3862.5
917.606,3859.65
917.877,3854.1
918.147,3857.0
918.418,3858.3
918.689,3856.15
918.959,3859.3
919.23,3861.65
919.5,3856.85
919.771,3854.0
920.042,3854.3
920.312,3851.9
920.583,3849.4
920.853,3847.4
921.124,3853.3
921.394,3847.1
921.665,3851.0
921.935,3850.75
922.206,3844.2
922.476,3842.8
922.747,3837.6
923.017,3839.9
923.287,3837.9
923.558,3840.4
923.828,3836.35
924.099,3835.6
924.369,3835.4
924.639,3835.65
924.91,3834.4
925.18,3833.5
925.451,3830.4
925.721,3829.1
925.991,3829.55
926.262,3830.4
926.532,3828.05
926.802,3827.15
927.073,3829.45
927.343,3815.85
927.613,3818.3
927.884,3821.15
928.154,3823.85
928.424,3821.15
928.694,3819.25
928.965,3818.75
929.235,3812.9
929.505,3814.45
929.775,3812.7
930.046,3806.65
930.316,3809.95
930.586,3809.55
930.856,3806.45
931.126,3807.25
931.397,3804.65
931.667,3806.5
931.937,3804.1
932.207,3802.3
932.477,3803.3
932.747,3806.15
933.017,3805.8
933.288,3800.05
933.558,3797.3
933.828,3797.75
934.098,3800.3
934.368,3798.35
934.638,3797.9
934.908,3796.65
935.178,3792.7
935.448,3793.2
935.718,3791.9
935.988,3790.95
936.258,3791.7
936.528,3791.05
936.798,3787.7
937.068,3789.55
937.338,3789.25
937.608,3790.35
937.878,3791.7
938.148,3785.8
938.418,3785.95
938.688,3785.45
938.958,3787.75
939.228,3789.0
939.498,3786.75
939.767,3785.9
940.037,3783.95
940.307,3781.4
940.577,3778.6
940.847,3781.95
941.117,3779.65
941.387,3778.4
941.656,3778.4
941.926,3777.85
942.196,3776.9
942.466,3779.8
942.736,3778.25
943.005,3777.35
943.275,3775.35
943.545,3776.45
943.815,3774.6
944.084,3775.5
944.354,3773.8
944.624,3771.9
944.894,3773.45
945.163,3772.7
945.433,3770.1
945.703,3771.65
945.972,3769.3
946.242,3770.15
946.512,3770.7
946.781,3769.4
947.051,3764.25
947.321,3768.5
947.59,3764.4
947.86,3768.9
948.13,3766.35
948.399,3765.55
948.669,3762.85
948.938,3766.0
949.208,3764.55
949.477,3763.6
949.747,3765.95
950.016,3763.3
950.286,3763.0
950.556,3763.9
950.825,3763.85
951.095,3762.85
951.364,3762.65
951.634,3761.05
951.903,3757.6
952.172,3760.5
952.442,3758.15
952.711,3759.3
952.981,3759.5
953.25,3756.4
953.52,3755.9
953.789,3754.8
954.058,3759.55
954.328,3757.6
954.597,3756.35
954.867,3754.9
955.136,3755.4
955.405,3755.75
955.675,3753.9
955.944,3752.6
956.213,3752.45
956.483,3754.3
956.752,3751.95
957.021,3751.4
957.29,3750.7
957.56,3753.05
957.829,3751.1
958.098,3753.3
958.367,3748.6
958.637,3748.55
958.906,3748.75
959.175,3748.0
959.444,3750.5
959.714,3749.95
959.983,3746.45
960.252,3749.1
960.521,3749.3
960.79,3747.25
961.059,3745.55
961.328,3747.5
961.598,3745.0
961.867,3746.3
962.136,3745.55
962.405,3745.3
962.674,3745.1
962.943,3745.2
963.212,3744.35
963.481,3743.0
963.75,3744.4
964.019,3744.55
964.288,3745.1
964.557,3741.9
964.826,3742.4
965.095,3740.2
965.364,3740.3
965.633,3743.6
965.902,3740.05
966.171,3739.7
966.44,3741.8
966.709,3742.8
966.978,3741.25
967.247,3739.3
967.516,3739.1
967.785,3738.15
968.054,3739.85
968.323,3738.7
968.591,3737.25
968.86,3738.1
969.129,3740.4
969.398,3739.0
969.667,3739.5
969.936,3738.5
970.204,3737.5
970.473,3737.3
970.742,3736.95
971.011,3736.15
971.28,3735.95
971.548,3735.05
971.817,3737.2
972.086,3735.4
972.355,3735.85
972.623,3735.3
972.892,3736.05
973.161,3734.4
973.429,3733.45
973.698,3735.75
973.967,3733.55
974.235,3736.1
974.504,3732.25
974.773,3731.35
975.041,3732.65
975.31,3731.9
975.579,3730.3
975.847,3730.35
976.116,3732.75
976.384,3732.55
976.653,3731.2
976.922,3731.75
977.19,3731.4
977.459,3731.25
977.727,3729.8
977.996,3732.4
978.264,3731.15
978.533,3728.45
978.801,3729.6
979.07,3728.45
979.338,3728.4
979.607,3729.0
979.875,3728.95
980.143,3729.3
980.412,3728.25
980.68,3728.15
980.949,3728.0
981.217,3725.75
981.486,3729.8
981.754,3728.2
982.022,3729.25
982.291,3726.2
982.559,3728.95
982.827,3729.1
983.096,3726.8
983.364,3726.2
983.632,3725.75
983.901,3726.1
984.169,3728.3
984.437,3727.15
984.705,3727.8
984.974,3725.3
985.242,3725.3
985.51,3725.6
985.778,3726.85
986.047,3727.95
986.315,3725.05
986.583,3725.45
986.851,3723.15
987.119,3725.8
987.388,3724.7
987.656,3728.5
987.924,3725.05
988.192,3727.15
988.46,3724.15
988.728,3726.4
988.996,3724.4
989.264,3724.8
989.533,3724.85
989.801,3723.1
990.069,3724.85
990.337,3726.45
990.605,3725.05
990.873,3724.55
991.141,3724.9
991.409,3723.65
991.677,3722.05
991.945,3721.85
992.213,3724.55
992.481,3722.25
992.749,3724.65
993.017,3722.45
993.285,3721.55
993.553,3723.15
993.82,3721.85
994.088,3722.85
994.356,3721.55
994.624,3721.4
994.892,3721.85
995.16,3721.75
995.428,3721.05
995.696,3722.35
995.963,3722.15
996.231,3721.9
996.499,3723.55
996.767,3724.1
997.035,3723.6
997.302,3722.75
997.57,3721.2
997.838,3723.95
998.106,3721.8
998.373,3722.15
998.641,3722.9
998.909,3722.7
999.177,3721.6
999.444,3721.55
999.712,3721.3
999.98,3720.7
1000.25,3719.2
1000.51,3719.1
1000.78,3719.95
1001.05,3717.45
1001.32,3717.55
1001.59,3718.75
1001.85,3719.15
1002.12,3718.5
1002.39,3718.1
1002.66,3718.15
1002.92,3717.1
1003.19,3715.45
1003.46,3715.55
1003.73,3716.3
1003.99,3716.2
1004.26,3716.9
1004.53,3714.2
1004.8,3715.8
1005.06,3716.45
1005.33,3715.75
1005.6,3714.9
1005.87,3715.85
1006.13,3716.2
1006.4,3714.7
1006.67,3717.35
1006.94,3717.35
1007.2,3716.2
1007.47,3717.8
1007.74,3719.5
1008.0,3723.5
1008.27,3721.05
1008.54,3723.1
1008.81,3725.95
1009.07,3727.95
1009.34,3729.45
1009.61,3728.7
1009.88,3728.15
1010.14,3729.95
1010.41,3731.05
1010.68,3732.2
1010.95,3729.95
1011.21,3734.9
1011.48,3735.85
1011.75,3737.35
1012.01,3738.35
1012.28,3738.65
1012.55,3740.55
1012.82,3741.3
1013.08,3746.9
1013.35,3747.35
1013.62,3750.35
1013.88,3749.25
1014.15,3748.6
1014.42,3750.2
1014.69,3747.4
1014.95,3745.7
1015.22,3747.45
1015.49,3747.3
1015.75,3742.4
1016.02,3740.35
1016.29,3743.05
1016.55,3738.2
1016.82,3738.6
1017.09,3735.2
1017.36,3733.35
1017.62,3733.35
1017.89,3733.05
1018.16,3728.3
1018.42,3728.25
1018.69,3728.3
1018.96,3725.85
1019.22,3725.55
1019.49,3724.9
1019.76,3724.0
1020.02,3722.3
1020.29,3723.95
1020.56,3721.0
1020.83,3721.7
1021.09,3724.75
1021.36,3722.95
1021.63,3721.4
1021.89,3722.65
1022.16,3720.5
1022.43,3720.9
1022.69,3721.1
1022.96,3718.4
1023.23,3716.4
1023.49,3715.65
1023.76,3715.75
1024.03,3712.55
1024.29,3712.55
1024.56,3713.8
1024.83,3711.9
1025.09,3710.25
1025.36,3710.75
1025.63,3709.4
1025.89,3709.45
1026.16,3709.65
1026.43,3708.7
1026.69,3708.1
1026.96,3706.8
1027.23,3707.1
1027.49,3706.7
1027.76,3708.15
1028.03,3707.1
1028.29,3707.9
1028.56,3706.85
1028.83,3708.2
1029.09,3707.8
1029.36,3706.95
1029.62,3706.15
1029.89,3706.85
1030.16,3706.85
1030.42,3707.0
1030.69,3706.5
1030.96,3706.5
1031.22,3706.8
1031.49,3706.6
1031.76,3706.05
1032.02,3707.75
1032.29,3705.55
1032.56,3707.8
1032.82,3706.7
1033.09,3706.25
1033.35,3706.8
1033.62,3707.1
1033.89,3707.35
1034.15,3706.3
1034.42,3706.8
1034.69,3706.5
1034.95,3706.4
1035.22,3704.7
1035.48,3705.95
1035.75,3705.4
1036.02,3705.8
1036.28,3705.65
1036.55,3706.1
1036.81,3706.05
1037.08,3705.0
1037.35,3706.0
1037.61,3705.25
1037.88,3705.95
1038.15,3703.35
1038.41,3704.95
1038.68,3705.7
1038.94,3705.3
1039.21,3704.35
1039.48,3706.85
1039.74,3704.9
1040.01,3705.3
1040.27,3705.45
1040.54,3704.55
1040.81,3706.9
1041.07,3703.45
1041.34,3704.1
1041.6,3703.35
1041.87,3704.05
1042.14,3705.1
1042.4,3704.55
1042.67,3704.8
1042.93,3705.7
1043.2,3703.55
1043.47,3704.0
1043.73,3705.1
1044.0,3705.5
1044.26,3704.95
1044.53,3704.3
1044.79,3704.2
1045.06,3704.2
1045.33,3703.85
1045.59,3704.25
1045.86,3703.65
1046.12,3704.1
1046.39,3703.85
1046.65,3703.45
1046.92,3703.8
1047.19,3704.8
1047.45,3704.35
1047.72,3703.0
1047.98,3703.75
1048.25,3704.05
1048.51,3704.5
1048.78,3704.1
1049.05,3704.6
1049.31,3704.3
1049.58,3702.95
1049.84,3703.75
1050.11,3703.0
1050.37,3702.95
1050.64,3704.4
1050.91,3702.65
1051.17,3702.6
1051.44,3703.6
1051.7,3704.05
1051.97,3703.95
1052.23,3703.85
1052.5,3704.75
1052.76,3703.8
1053.03,3703.2
1053.29,3705.05
1053.56,3702.95
1053.83,3702.75
1054.09,3703.8
1054.36,3703.3
1054.62,3704.05
1054.89,3704.85
1055.15,3703.7
1055.42,3704.9
1055.68,3703.6
1055.95,3702.75
1056.21,3702.7
1056.48,3703.5
1056.74,3702.0
1057.01,3703.7
1057.27,3702.9
1057.54,3702.4
1057.81,3703.75
1058.07,3703.05
1058.34,3704.15
1058.6,3703.8
1058.87,3703.95
1059.13,3703.9
1059.4,3703.85
1059.66,3703.95
1059.93,3704.25
1060.19,3704.15
1060.46,3703.3
1060.72,3702.7
1060.99,3703.25
1061.25,3704.85
1061.52,3702.65
1061.78,3702.75
1062.05,3702.0
1062.31,3704.6
1062.58,3703.2
1062.84,3702.75
1063.11,3703.1
1063.37,3702.3
1063.64,3703.3
1063.9,3703.95
1064.17,3702.75
1064.43,3703.3
1064.7,3701.7
1064.96,3702.85
1065.23,3704.35
1065.49,3703.15
1065.76,3701.25
1066.02,3703.4
1066.29,3703.25
1066.55,3702.85
1066.82,3704.35
1067.08,3703.85
1067.35,3701.8
1067.61,3702.0
1067.88,3701.0
