nm,Intensity
526.508,830.7
526.645,828.4
526.782,830.4
526.919,830.9
527.055,829.8
527.192,831.2
527.329,828.5
527.465,830.6
527.602,830.4
527.739,829.6
527.875,830.3
528.012,829.4
528.149,831.7
528.285,828.9
528.422,830.7
528.558,829.8
528.695,830.6
528.832,831.5
528.968,831.5
529.105,828.4
529.241,829.7
529.378,830.1
529.514,830.3
529.651,829.6
529.787,830.2
529.924,830.6
530.061,830.6
530.197,831.5
530.334,829.9
530.47,830.8
530.606,829.8
530.743,831.2
530.879,831.7
531.016,830.8
531.152,829.9
531.289,829.3
531.425,829.9
531.562,831.2
531.698,831.1
531.834,830.3
531.971,835.6
532.107,879.9
532.244,891.4
532.38,843.2
532.516,831.4
532.653,830.5
532.789,829.7
532.925,831.0
533.062,829.9
533.198,829.7
533.334,830.1
533.471,829.1
533.607,829.8
533.743,835.8
533.879,854.2
534.016,882.7
534.152,887.2
534.288,886.6
534.424,883.2
534.561,881.2
534.697,886.8
534.833,894.2
534.969,899.6
535.106,904.1
535.242,905.5
535.378,895.1
535.514,878.7
535.65,866.1
535.786,860.5
535.923,856.1
536.059,854.2
536.195,851.6
536.331,852.2
536.467,852.7
536.603,852.6
536.739,856.9
536.876,868.0
537.012,877.3
537.148,877.7
537.284,876.1
537.42,865.5
537.556,860.6
537.692,855.5
537.828,849.8
537.964,851.9
538.1,851.0
538.236,848.3
538.372,848.6
538.508,849.9
538.644,846.6
538.78,852.0
538.916,850.0
539.052,855.2
539.188,857.8
539.324,858.9
539.46,859.3
539.596,857.6
539.732,851.3
539.868,850.6
540.004,847.4
540.14,844.2
540.275,842.3
540.411,842.8
540.547,841.5
540.683,842.8
540.819,842.4
540.955,844.1
541.091,846.2
541.227,850.3
541.362,852.2
541.498,854.7
541.634,847.7
541.77,845.7
541.906,842.7
542.041,844.6
542.177,842.4
542.313,840.3
542.449,840.5
542.585,841.4
542.72,840.1
542.856,840.9
542.992,841.8
543.128,844.6
543.263,846.9
543.399,856.6
543.535,880.5
543.67,917.9
543.806,914.0
543.942,879.0
544.078,862.7
544.213,851.7
544.349,848.4
544.485,845.5
544.62,845.6
544.756,845.7
544.892,847.7
545.027,848.6
545.163,856.4
545.298,865.2
545.434,870.2
545.57,859.6
545.705,852.5
545.841,846.1
545.976,842.5
546.112,841.5
546.248,841.4
546.383,841.7
546.519,840.8
546.654,840.6
546.79,843.3
546.925,839.8
547.061,844.4
547.196,845.0
547.332,850.1
547.467,856.5
547.603,858.9
547.738,857.6
547.874,849.2
548.009,842.9
548.145,841.8
548.28,841.6
548.416,838.1
548.551,839.9
548.686,839.5
548.822,838.5
548.957,838.6
549.093,839.4
549.228,836.8
549.363,838.1
549.499,836.1
549.634,837.5
549.77,836.5
549.905,834.3
550.04,836.5
550.176,836.9
550.311,835.3
550.446,835.3
550.582,836.4
550.717,836.8
550.852,837.1
550.988,835.2
551.123,834.7
551.258,836.6
551.394,836.2
551.529,837.5
551.664,836.3
551.799,835.9
551.935,834.3
552.07,835.6
552.205,838.1
552.34,836.4
552.476,835.7
552.611,837.2
552.746,836.4
552.881,837.1
553.016,835.7
553.152,838.4
553.287,836.4
553.422,837.5
553.557,836.8
553.692,837.5
553.827,837.2
553.963,838.3
554.098,837.4
554.233,839.3
554.368,836.7
554.503,839.2
554.638,838.7
554.773,840.2
554.908,842.2
555.043,841.6
555.179,840.4
555.314,844.4
555.449,845.9
555.584,851.2
555.719,857.4
555.854,876.4
555.989,946.5
556.124,1027.0
556.259,967.3
556.394,892.9
556.529,874.4
556.664,872.6
556.799,881.9
556.934,894.7
557.069,926.5
557.204,923.4
557.339,887.2
557.474,863.8
557.609,856.7
557.744,853.8
557.879,849.7
558.014,847.3
558.149,847.5
558.284,846.5
558.419,844.5
558.553,845.4
558.688,845.5
558.823,850.5
558.958,855.4
559.093,849.5
559.228,846.7
559.363,844.7
559.498,843.4
559.632,842.7
559.767,843.6
559.902,845.5
560.037,851.5
560.172,865.8
560.307,866.2
560.441,857.6
560.576,850.1
560.711,852.4
560.846,854.0
560.981,862.5
561.115,894.7
561.25,939.1
561.385,912.6
561.52,867.2
561.654,854.3
561.789,854.3
561.924,863.7
562.059,872.2
562.193,864.8
562.328,854.4
562.463,850.5
562.598,849.2
562.732,852.1
562.867,853.1
563.002,858.3
563.136,867.0
563.271,877.7
563.406,873.1
563.54,866.7
563.675,860.3
563.81,852.7
563.944,848.7
564.079,847.8
564.213,845.9
564.348,843.8
564.483,846.2
564.617,843.3
564.752,843.3
564.887,845.3
565.021,847.8
565.156,850.1
565.29,853.4
565.425,853.3
565.559,852.0
565.694,847.6
565.828,848.8
565.963,845.4
566.098,845.6
566.232,849.8
566.367,849.5
566.501,856.9
566.636,863.2
566.77,886.7
566.905,921.5
567.039,927.5
567.174,915.6
567.308,923.0
567.443,948.3
567.577,932.0
567.711,885.8
567.846,860.5
567.98,853.1
568.115,850.3
568.249,849.9
568.384,851.2
568.518,852.2
568.652,853.3
568.787,857.1
568.921,869.0
569.056,881.5
569.19,884.6
569.324,871.1
569.459,856.8
569.593,853.8
569.727,853.7
569.862,853.9
569.996,854.3
570.131,861.4
570.265,871.5
570.399,863.3
570.534,854.5
570.668,850.8
570.802,850.9
570.936,849.3
571.071,851.7
571.205,852.1
571.339,855.0
571.474,859.9
571.608,864.3
571.742,864.9
571.876,871.3
572.011,869.3
572.145,861.3
572.279,868.4
572.413,880.8
572.548,910.8
572.682,961.1
572.816,951.2
572.95,902.8
573.084,874.9
573.219,866.0
573.353,865.6
573.487,874.2
573.621,896.6
573.755,903.1
573.889,881.0
574.024,869.6
574.158,868.0
574.292,865.2
574.426,855.0
574.56,853.2
574.694,847.8
574.828,844.8
574.963,847.0
575.097,845.2
575.231,845.1
575.365,845.9
575.499,844.9
575.633,845.3
575.767,847.7
575.901,851.5
576.035,868.7
576.169,899.3
576.303,904.2
576.437,895.7
576.571,899.9
576.706,927.5
576.84,971.2
576.974,999.8
577.108,990.1
577.242,939.5
577.376,890.2
577.51,864.9
577.644,858.5
577.778,854.6
577.912,848.4
578.046,845.6
578.179,845.4
578.313,844.6
578.447,843.1
578.581,844.5
578.715,843.2
578.849,843.6
578.983,843.6
579.117,842.4
579.251,843.1
579.385,842.1
579.519,840.8
579.653,842.7
579.787,843.2
579.921,841.9
580.054,842.5
580.188,842.4
580.322,840.8
580.456,841.8
580.59,841.1
580.724,841.8
580.858,841.0
580.991,840.7
581.125,843.4
581.259,842.6
581.393,842.5
581.527,841.9
581.661,840.6
581.794,840.6
581.928,841.9
582.062,841.5
582.196,842.5
582.33,842.6
582.463,841.0
582.597,843.7
582.731,841.3
582.865,841.6
582.998,844.9
583.132,841.8
583.266,842.6
583.4,843.5
583.533,842.5
583.667,842.6
583.801,844.1
583.935,843.4
584.068,843.0
584.202,843.4
584.336,842.3
584.469,840.6
584.603,844.8
584.737,843.1
584.87,844.5
585.004,843.7
585.138,842.6
585.271,843.3
585.405,842.4
585.539,842.4
585.672,843.5
585.806,841.2
585.94,843.5
586.073,841.1
586.207,840.8
586.34,841.6
586.474,842.7
586.608,841.1
586.741,842.4
586.875,840.9
587.008,841.8
587.142,842.7
587.276,843.0
587.409,841.3
587.543,843.1
587.676,840.4
587.81,839.2
587.943,841.4
588.077,840.5
588.21,839.7
588.344,840.4
588.478,840.7
588.611,840.7
588.745,840.3
588.878,839.7
589.012,842.0
589.145,840.7
589.279,842.4
589.412,842.6
589.546,840.0
589.679,842.6
589.812,842.3
589.946,840.7
590.079,841.2
590.213,843.3
590.346,842.5
590.48,840.5
590.613,841.7
590.747,842.3
590.88,840.4
591.013,840.3
591.147,840.8
591.28,840.3
591.414,842.1
591.547,839.9
591.68,840.6
591.814,840.2
591.947,841.8
592.081,841.8
592.214,840.4
592.347,839.9
592.481,841.4
592.614,838.9
592.747,841.8
592.881,840.5
593.014,842.3
593.147,840.7
593.281,841.8
593.414,843.1
593.547,841.8
593.681,839.4
593.814,840.5
593.947,841.5
594.081,840.9
594.214,839.9
594.347,841.6
594.48,841.4
594.614,842.3
594.747,840.3
594.88,840.8
595.014,840.5
595.147,841.8
595.28,840.5
595.413,842.3
595.547,841.8
595.68,842.2
595.813,840.5
595.946,842.0
596.079,839.2
596.213,840.7
596.346,840.7
596.479,841.6
596.612,840.5
596.745,841.0
596.879,839.0
597.012,842.4
597.145,841.5
597.278,843.5
597.411,842.0
597.545,840.4
597.678,841.9
597.811,840.3
597.944,840.6
598.077,840.6
598.21,838.9
598.343,841.1
598.476,839.5
598.61,841.0
598.743,843.0
598.876,841.6
599.009,841.7
599.142,841.8
599.275,841.9
599.408,843.0
599.541,840.7
599.674,842.2
599.807,842.5
599.941,842.1
600.074,843.0
600.207,841.6
600.34,842.0
600.473,840.4
600.606,840.2
600.739,841.0
600.872,841.8
601.005,838.9
601.138,843.2
601.271,838.8
601.404,840.0
601.537,841.2
601.67,840.8
601.803,842.3
601.936,839.4
602.069,841.8
602.202,840.4
602.335,842.0
602.468,842.5
602.601,841.3
602.734,841.3
602.867,838.9
603.0,841.4
603.133,844.1
603.266,841.2
603.399,840.9
603.532,842.2
603.664,841.1
603.797,840.7
603.93,842.4
604.063,843.0
604.196,841.3
604.329,842.5
604.462,842.7
604.595,844.5
604.728,843.1
604.861,844.3
604.994,841.8
605.126,843.6
605.259,843.2
605.392,843.3
605.525,843.9
605.658,842.8
605.791,841.7
605.924,843.6
606.056,841.2
606.189,843.5
606.322,844.0
606.455,843.6
606.588,842.9
606.721,844.7
606.853,842.3
606.986,841.4
607.119,843.4
607.252,842.9
607.385,843.0
607.517,845.5
607.65,843.7
607.783,842.9
607.916,845.0
608.049,842.8
608.181,843.2
608.314,843.1
608.447,842.5
608.58,843.2
608.712,842.5
608.845,843.3
608.978,841.8
609.111,844.7
609.243,841.4
609.376,841.4
609.509,845.2
609.641,844.0
609.774,844.1
609.907,842.5
610.04,842.9
610.172,844.3
610.305,843.1
610.438,845.2
610.57,843.4
610.703,843.8
610.836,843.6
610.968,844.4
611.101,843.7
611.234,843.9
611.366,844.1
611.499,843.9
611.632,843.8
611.764,842.5
611.897,843.3
612.03,845.4
612.162,843.9
612.295,843.5
612.428,843.6
612.56,844.8
612.693,845.1
612.825,847.0
612.958,846.6
613.091,843.3
613.223,844.6
613.356,843.3
613.488,845.5
613.621,843.4
613.754,844.1
613.886,845.0
614.019,844.4
614.151,844.8
614.284,843.2
614.416,847.0
614.549,844.7
614.681,845.4
614.814,845.6
614.947,847.0
615.079,845.6
615.212,847.3
615.344,845.4
615.477,845.5
615.609,846.3
615.742,847.2
615.874,846.8
616.007,846.1
616.139,846.2
616.272,844.4
616.404,845.0
616.537,847.1
616.669,846.5
616.802,847.3
616.934,849.0
617.067,847.4
617.199,848.7
617.332,848.6
617.464,848.9
617.596,848.4
617.729,850.4
617.861,849.6
617.994,848.7
618.126,848.9
618.259,850.5
618.391,850.1
618.524,848.9
618.656,850.1
618.788,849.4
618.921,849.8
619.053,850.5
619.186,852.9
619.318,854.5
619.45,854.2
619.583,856.6
619.715,854.9
619.848,857.8
619.98,855.7
620.112,857.3
620.245,856.7
620.377,852.6
620.509,856.3
620.642,855.9
620.774,855.2
620.907,857.0
621.039,854.7
621.171,856.3
621.304,857.8
621.436,857.0
621.568,864.4
621.701,868.2
621.833,874.3
621.965,877.9
622.097,883.1
622.23,891.9
622.362,901.1
622.494,898.3
622.627,890.0
622.759,879.9
622.891,871.6
623.024,868.9
623.156,868.4
623.288,864.7
623.42,863.1
623.553,862.1
623.685,859.3
623.817,854.1
623.949,853.8
624.082,854.2
624.214,852.6
624.346,853.0
624.479,852.8
624.611,851.8
624.743,852.5
624.875,852.5
625.007,854.6
625.14,853.7
625.272,855.9
625.404,856.5
625.536,857.3
625.669,860.1
625.801,862.6
625.933,867.4
626.065,872.3
626.197,876.6
626.33,886.5
626.462,905.5
626.594,943.3
626.726,1015.8
626.858,1113.3
626.99,1149.3
627.123,1100.3
627.255,1036.5
627.387,984.4
627.519,966.2
627.651,984.9
627.783,1063.8
627.916,1194.8
628.048,1302.5
628.18,1312.9
628.312,1322.8
628.444,1385.1
628.576,1461.3
628.708,1499.6
628.84,1456.7
628.973,1387.4
629.105,1313.5
629.237,1290.8
629.369,1295.9
629.501,1317.0
629.633,1308.1
629.765,1243.3
629.897,1203.2
630.029,1186.6
630.161,1193.4
630.294,1198.8
630.426,1185.3
630.558,1136.9
630.69,1075.3
630.822,1027.8
630.954,1016.6
631.086,1042.8
631.218,1105.4
631.35,1193.5
631.482,1231.1
631.614,1253.3
631.746,1274.2
631.878,1253.4
632.01,1193.8
632.142,1116.1
632.274,1029.5
632.406,974.0
632.538,930.2
632.67,908.0
632.802,889.9
632.934,882.2
633.066,876.7
633.198,871.2
633.33,866.8
633.462,860.1
633.594,860.5
633.726,856.7
633.858,854.8
633.99,856.3
634.122,850.9
634.254,849.7
634.386,851.8
634.518,848.6
634.65,849.1
634.782,848.3
634.914,847.5
635.046,849.2
635.178,849.0
635.31,845.2
635.442,847.4
635.574,846.1
635.706,847.5
635.838,845.2
635.97,844.5
636.102,846.9
636.234,844.3
636.365,846.1
636.497,844.6
636.629,844.5
636.761,843.8
636.893,845.6
637.025,844.9
637.157,843.7
637.289,844.2
637.421,844.7
637.553,842.9
637.685,844.1
637.816,845.7
637.948,842.7
638.08,843.7
638.212,843.4
638.344,846.0
638.476,843.5
638.608,844.7
638.74,841.8
638.871,845.0
639.003,846.2
639.135,846.3
639.267,843.9
639.399,846.7
639.531,845.0
639.662,843.9
639.794,845.2
639.926,845.8
640.058,842.2
640.19,844.1
640.322,842.7
640.453,846.7
640.585,843.1
640.717,844.5
640.849,847.0
640.981,845.9
641.113,845.7
641.244,846.5
641.376,846.4
641.508,844.4
641.64,845.9
641.772,845.5
641.903,846.3
642.035,842.4
642.167,844.0
642.299,841.1
642.43,842.3
642.562,840.8
642.694,842.6
642.826,841.1
642.958,841.6
643.089,840.8
643.221,838.9
643.353,840.4
643.485,842.5
643.616,840.1
643.748,841.4
643.88,842.9
644.012,838.2
644.143,840.3
644.275,839.8
644.407,840.7
644.538,840.7
644.67,839.6
644.802,840.7
644.934,840.0
645.065,839.1
645.197,838.0
645.329,838.8
645.461,837.4
645.592,839.1
645.724,840.6
645.856,840.1
645.987,838.7
646.119,836.8
646.251,838.9
646.382,840.1
646.514,839.7
646.646,838.2
646.777,839.8
646.909,838.9
647.041,841.1
647.172,838.7
647.304,839.4
647.436,839.6
647.567,839.2
647.699,839.6
647.831,838.6
647.962,838.7
648.094,840.1
648.226,838.3
648.357,839.8
648.489,838.8
648.621,838.1
648.752,838.0
648.884,840.1
649.016,838.0
649.147,836.6
649.279,837.9
649.411,838.2
649.542,838.0
649.674,837.7
649.805,837.7
649.937,837.1
650.069,839.5
650.2,839.0
650.332,837.7
650.463,838.3
650.595,838.3
650.727,838.3
650.858,837.0
650.99,838.6
651.121,838.3
651.253,838.9
651.385,838.2
651.516,837.6
651.648,838.4
651.779,838.3
651.911,838.9
652.043,838.6
652.174,837.9
652.306,838.3
652.437,838.3
652.569,837.2
652.7,838.7
652.832,839.4
652.963,836.8
653.095,838.6
653.227,837.1
653.358,837.7
653.49,838.5
653.621,837.8
653.753,838.5
653.884,836.9
654.016,838.2
654.147,837.1
654.279,837.8
654.41,835.9
654.542,838.1
654.674,838.4
654.805,837.4
654.937,836.3
655.068,836.8
655.2,836.0
655.331,836.5
655.463,836.3
655.594,837.7
655.726,837.3
655.857,835.6
655.989,838.6
656.12,836.9
656.252,837.0
656.383,837.9
656.515,836.2
656.646,837.0
656.778,838.0
656.909,836.8
657.041,837.0
657.172,836.9
657.304,836.7
657.435,837.8
657.567,837.9
657.698,837.2
657.829,838.0
657.961,837.3
658.092,838.3
658.224,837.1
658.355,837.9
658.487,835.4
658.618,836.6
658.75,838.5
658.881,838.1
659.013,836.6
659.144,836.0
659.275,836.5
659.407,836.2
659.538,836.2
659.67,836.6
659.801,836.4
659.933,837.1
660.064,836.3
660.196,836.8
660.327,837.1
660.458,838.1
660.59,836.6
660.721,837.8
660.853,836.4
660.984,835.4
661.116,836.5
661.247,837.4
661.378,837.8
661.51,835.3
661.641,836.4
661.773,836.2
661.904,835.2
662.035,838.1
662.167,837.6
662.298,835.8
662.43,836.9
662.561,836.9
662.692,836.1
662.824,836.0
662.955,835.9
663.087,837.1
