cm-1,Intensity
-123.878,1855.15
-120.866,1855.5
-117.855,1854.45
-114.845,1855.85
-111.836,1856.1
-108.828,1856.3
-105.821,1856.1
-102.815,1855.6
-99.8104,1855.3
-96.8065,1857.5
-93.8036,1856.15
-90.8016,1854.05
-87.8007,1855.9
-84.8008,1857.2
-81.8019,1854.95
-78.8039,1855.25
-75.807,1857.6
-72.8111,1856.7
-69.8161,1855.0
-66.8222,1856.0
-63.8293,1857.1
-60.8373,1855.65
-57.8464,1855.4
-54.8564,1857.95
-51.8675,1855.8
-48.8795,1857.35
-45.8926,1855.9
-42.9066,1857.2
-39.9216,1857.5
-36.9377,1857.55
-33.9547,1859.45
-30.9727,1859.1
-27.9917,1860.6
-25.0117,1860.8
-22.0326,1861.35
-19.0546,1866.9
-16.0776,1882.65
-13.1015,1953.95
-10.1265,2181.65
-7.1524,2730.95
-4.17932,3528.75
-1.20723,3637.45
1.76388,3330.1
4.734,2519.25
7.70313,1972.85
10.6713,1868.6
13.6384,1860.35
16.6046,1859.4
19.5698,1860.7
22.534,1858.75
25.4972,1858.05
28.4595,1859.65
31.4207,1860.9
34.381,1862.45
37.3403,1862.8
40.2986,1866.7
43.256,1875.35
46.2123,1901.9
49.1677,1979.65
52.1221,2203.35
55.0755,2634.0
58.0279,3250.85
60.9794,3813.1
63.9299,4261.75
66.8794,4524.7
69.8279,4621.9
72.7754,4697.25
75.722,4687.3
78.6676,4587.35
81.6122,4453.9
84.5559,4372.8
87.4985,4316.0
90.4402,4251.8
93.381,4231.15
96.3207,4155.4
99.2595,4067.75
102.197,4000.85
105.134,3932.75
108.07,3901.15
111.005,3871.6
113.939,3862.5
116.872,3804.45
119.804,3777.05
122.735,3731.3
125.665,3677.75
128.594,3633.35
131.522,3597.6
134.449,3616.95
137.375,3589.65
140.301,3572.95
143.225,3558.3
146.148,3543.7
149.07,3534.05
151.992,3544.6
154.912,3563.0
157.832,3561.8
160.75,3515.3
163.668,3568.45
166.584,3562.2
169.5,3567.35
172.414,3573.7
175.328,3567.4
178.241,3567.3
181.153,3586.25
184.063,3631.15
186.973,3620.0
189.882,3574.7
192.79,3601.0
195.697,3634.4
198.603,3672.4
201.508,3667.7
204.412,3657.5
207.315,3684.1
210.217,3648.55
213.119,3644.35
216.019,3675.35
218.918,3682.7
221.816,3672.25
224.714,3687.0
227.61,3706.45
230.506,3735.8
233.4,3680.8
236.294,3680.8
239.187,3663.15
242.078,3683.75
244.969,3682.0
247.859,3703.55
250.748,3666.35
253.636,3672.05
256.523,3683.25
259.409,3686.9
262.294,3702.15
265.178,3705.7
268.061,3700.75
270.943,3703.05
273.824,3707.15
276.705,3723.6
279.584,3723.35
282.463,3744.55
285.34,3760.6
288.217,3743.15
291.092,3766.65
293.967,3760.55
296.841,3767.2
299.713,3749.5
302.585,3745.9
305.456,3796.5
308.326,3772.2
311.195,3756.65
314.063,3767.75
316.93,3776.55
319.797,3763.8
322.662,3774.15
325.526,3769.55
328.389,3770.3
331.252,3757.55
334.113,3750.9
336.974,3798.2
339.834,3787.4
342.692,3830.1
345.55,3861.9
348.407,3843.85
351.263,3836.7
354.118,3848.35
356.972,3830.15
359.825,3860.45
362.677,3877.25
365.529,3871.45
368.379,3865.2
371.228,3879.15
374.077,3894.95
376.924,3943.25
379.771,3934.25
382.616,3935.55
385.461,3937.75
388.305,3889.35
391.148,3932.0
393.99,3927.4
396.831,3939.45
399.671,3938.45
402.51,3970.3
405.348,3973.35
408.186,3945.05
411.022,3952.8
413.858,3977.3
416.692,3993.45
419.526,3995.25
422.359,3941.25
425.19,3962.85
428.021,4020.1
430.851,4009.4
433.68,3992.95
436.508,3987.35
439.335,4029.65
442.162,4078.9
444.987,4016.2
447.811,3996.7
450.635,4005.3
453.458,4021.65
456.279,4031.35
459.1,4042.55
461.92,4039.85
464.739,4048.85
467.557,4050.05
470.374,4071.85
473.19,4081.9
476.005,4103.5
478.82,4102.2
481.633,4069.0
484.445,4085.75
487.257,4116.65
490.068,4164.05
492.878,4149.9
495.686,4096.55
498.494,4095.2
501.301,4092.6
504.107,4132.6
506.913,4155.9
509.717,4174.05
512.52,4194.4
515.323,4116.8
518.124,4123.5
520.925,4131.6
523.725,4141.6
526.524,4168.8
529.322,4173.45
532.119,4210.1
534.915,4245.15
537.71,4264.2
540.504,4203.65
543.298,4168.05
546.09,4208.7
548.882,4210.55
551.673,4256.75
554.462,4272.35
557.251,4277.6
560.039,4279.35
562.826,4295.7
565.613,4269.85
568.398,4285.85
571.182,4257.65
573.966,4232.85
576.748,4278.9
579.53,4280.8
582.311,4288.6
585.091,4284.5
587.87,4311.55
590.648,4292.25
593.425,4263.5
596.201,4287.85
598.977,4300.85
601.751,4349.65
604.525,4325.1
607.298,4293.2
610.069,4335.45
612.84,4351.75
615.61,4397.65
618.38,4388.1
621.148,4415.55
623.915,4437.85
626.682,4389.75
629.447,4421.35
632.212,4468.9
634.976,4466.3
637.739,4449.95
640.501,4424.1
643.262,4411.4
646.022,4422.75
648.781,4394.3
651.54,4430.25
654.297,4476.2
657.054,4460.5
659.81,4448.9
662.565,4453.35
665.319,4459.05
668.072,4413.4
670.824,4431.75
673.575,4437.75
676.326,4529.8
679.075,4511.55
681.824,4477.75
684.572,4497.45
687.319,4531.05
690.065,4496.9
692.81,4434.65
695.554,4453.1
698.298,4445.25
701.04,4468.35
703.782,4505.5
706.522,4550.5
709.262,4510.6
712.001,4452.65
714.739,4497.0
717.477,4519.65
720.213,4533.25
722.948,4516.95
725.683,4518.95
728.417,4494.75
731.15,4504.15
733.882,4541.55
736.613,4613.25
739.343,4622.8
742.072,4584.45
744.801,4572.45
747.528,4601.2
750.255,4586.8
752.981,4587.05
755.706,4659.5
758.43,4666.3
761.153,4640.0
763.875,4692.8
766.597,4704.4
769.317,4709.65
772.037,4693.6
774.756,4625.15
777.474,4647.3
780.191,4679.25
782.907,4724.0
785.623,4745.05
788.337,4737.0
791.051,4748.85
793.764,4770.7
796.475,4751.3
799.186,4720.8
801.897,4737.95
804.606,4745.05
807.314,4765.95
810.022,4705.85
812.729,4696.35
815.434,4775.75
818.139,4792.45
820.844,4768.9
823.547,4705.8
826.249,4678.0
828.951,4719.65
831.651,4762.35
834.351,4765.35
837.05,4750.65
839.748,4736.15
842.445,4763.8
845.142,4775.0
847.837,4789.0
850.532,4834.1
853.225,4834.1
855.918,4860.05
858.61,4905.2
861.302,4928.35
863.992,4878.25
866.681,4833.45
869.37,4898.1
872.058,4857.05
874.745,4822.2
877.431,4839.65
880.116,4816.45
882.8,4792.65
885.484,4856.15
888.166,4879.1
890.848,4845.6
893.529,4853.2
896.209,4868.9
898.888,4869.3
901.566,4866.35
904.244,4854.55
906.921,4833.2
909.596,4837.6
912.271,4890.7
914.945,4916.4
917.619,4841.6
920.291,4836.55
922.963,4856.15
925.633,4905.15
928.303,4913.25
930.972,4913.0
933.64,4880.1
936.308,4864.75
938.974,4913.65
941.64,4926.7
944.304,4880.4
946.968,4927.05
949.631,4925.9
952.294,4950.3
954.955,4967.6
957.615,5000.65
960.275,4997.45
962.934,4972.8
965.592,4970.15
968.249,4982.75
970.905,4988.25
973.561,4957.7
976.215,5026.55
978.869,5113.15
981.522,5053.2
984.174,5016.8
986.826,5078.05
989.476,5139.6
992.126,5239.95
994.774,5338.15
997.422,5456.4
1000.07,5593.9
1002.72,5629.75
1005.36,5532.2
1008.01,5328.95
1010.65,5198.65
1013.29,5121.9
1015.93,5122.45
1018.58,5147.3
1021.22,5132.65
1023.86,5187.85
1026.49,5208.25
1029.13,5280.65
1031.77,5260.2
1034.4,5243.4
1037.04,5227.8
1039.67,5178.3
1042.31,5178.55
1044.94,5216.85
1047.57,5249.25
1050.2,5170.0
1052.83,5102.8
1055.46,5107.35
1058.09,5132.5
1060.72,5181.5
1063.35,5190.3
1065.97,5218.5
1068.6,5242.8
1071.22,5223.0
1073.85,5249.4
1076.47,5216.9
1079.09,5224.2
1081.71,5250.1
1084.33,5284.4
1086.95,5352.6
1089.57,5365.05
1092.19,5366.3
1094.81,5395.0
1097.42,5312.0
1100.04,5346.9
1102.65,5390.4
1105.27,5387.3
1107.88,5378.45
1110.49,5390.65
1113.1,5401.4
1115.71,5371.35
1118.32,5387.05
1120.93,5453.6
1123.54,5448.0
1126.15,5357.55
1128.75,5275.9
1131.36,5258.8
1133.97,5343.6
1136.57,5387.2
1139.17,5434.35
1141.77,5415.7
1144.38,5419.7
1146.98,5424.05
1149.58,5464.05
1152.18,5448.7
1154.77,5434.0
1157.37,5461.55
1159.97,5474.2
1162.56,5430.75
1165.16,5452.4
1167.75,5480.1
1170.35,5395.85
1172.94,5428.85
1175.53,5528.05
1178.12,5599.6
1180.71,5572.5
1183.3,5564.9
1185.89,5534.9
1188.48,5551.1
1191.06,5546.65
1193.65,5554.75
1196.23,5634.55
1198.82,5602.65
1201.4,5570.5
1203.99,5592.4
1206.57,5598.55
1209.15,5633.35
1211.73,5614.1
1214.31,5590.9
1216.89,5592.45
1219.46,5610.0
1222.04,5622.6
1224.62,5615.8
1227.19,5586.45
1229.77,5555.5
1232.34,5539.4
1234.92,5575.7
1237.49,5631.75
1240.06,5659.1
1242.63,5612.95
1245.2,5616.2
1247.77,5653.2
1250.34,5623.4
1252.9,5674.65
1255.47,5686.45
1258.04,5722.85
1260.6,5652.6
1263.17,5709.1
1265.73,5724.95
1268.29,5743.35
1270.85,5780.8
1273.41,5797.2
1275.97,5786.8
1278.53,5825.25
1281.09,5892.35
1283.65,5906.9
1286.21,5913.75
1288.76,5908.35
1291.32,5933.3
1293.87,5947.0
1296.43,5975.6
1298.98,5875.45
1301.53,5893.9
1304.08,5944.25
1306.63,5892.0
1309.18,5902.1
1311.73,5854.9
1314.28,5908.9
1316.83,5879.6
1319.38,5864.9
1321.92,5834.05
1324.47,5787.8
1327.01,5834.3
1329.55,5886.3
1332.1,5896.75
1334.64,5896.55
1337.18,5868.05
1339.72,5870.25
1342.26,5847.65
1344.8,5855.65
1347.34,5856.65
1349.87,5846.5
1352.41,5814.4
1354.95,5801.85
1357.48,5852.65
1360.01,5874.35
1362.55,5875.5
1365.08,5849.75
1367.61,5861.95
1370.14,5873.55
1372.67,5873.15
1375.2,5909.1
1377.73,5809.25
1380.26,5794.6
1382.78,5832.5
1385.31,5827.15
1387.84,5814.3
1390.36,5869.9
1392.88,5851.9
1395.41,5889.8
1397.93,5944.75
1400.45,5921.45
1402.97,5914.6
1405.49,5975.8
1408.01,6021.0
1410.53,5989.2
1413.05,5962.85
1415.56,5893.85
1418.08,5904.6
1420.59,5929.65
1423.11,6060.25
1425.62,6075.05
1428.14,6017.1
1430.65,5972.85
1433.16,5971.9
1435.67,6015.0
1438.18,6010.9
1440.69,6072.7
1443.2,6144.15
1445.7,6066.1
1448.21,6066.3
1450.72,6086.3
1453.22,6081.0
1455.72,6069.0
1458.23,6057.0
1460.73,6037.4
1463.23,5996.2
1465.73,5994.65
1468.23,6073.7
1470.73,6175.25
1473.23,6101.8
1475.73,6036.3
1478.23,5989.2
1480.72,6013.75
1483.22,6086.9
1485.72,6088.4
1488.21,6071.8
1490.7,6012.9
1493.2,6013.45
1495.69,6012.25
1498.18,6006.55
1500.67,6051.85
1503.16,6072.4
1505.65,6068.5
1508.14,6085.25
1510.62,6130.05
1513.11,6050.95
1515.59,6039.15
1518.08,6023.85
1520.56,6107.7
1523.05,6110.65
1525.53,6079.95
1528.01,6016.65
1530.49,6041.3
1532.97,6164.55
1535.45,6178.6
1537.93,6118.5
1540.41,6159.0
1542.89,6124.1
1545.36,6106.75
1547.84,6145.45
1550.31,6140.55
1552.79,6198.85
1555.26,6192.05
1557.73,6114.85
1560.21,6134.95
1562.68,6254.0
1565.15,6300.1
1567.62,6220.65
1570.09,6169.4
1572.56,6254.0
1575.02,6291.6
1577.49,6266.5
1579.95,6263.2
1582.42,6262.45
1584.88,6301.45
1587.35,6230.35
1589.81,6265.55
1592.27,6345.55
1594.73,6353.55
1597.19,6446.75
1599.65,6537.05
1602.11,6575.35
1604.57,6666.9
1607.03,6753.95
1609.49,6797.1
1611.94,6894.4
1614.4,6961.8
1616.85,6822.15
1619.31,6682.05
1621.76,6517.3
1624.21,6409.0
1626.66,6358.85
1629.11,6410.8
1631.56,6327.05
1634.01,6216.95
1636.46,6194.9
1638.91,6167.0
1641.36,6193.85
1643.8,6262.2
1646.25,6280.95
1648.69,6168.7
1651.14,6214.0
1653.58,6290.55
1656.02,6272.65
1658.46,6218.9
1660.9,6300.9
1663.35,6328.55
1665.78,6225.8
1668.22,6181.85
1670.66,6260.6
1673.1,6283.25
1675.54,6301.75
1677.97,6270.3
1680.41,6294.2
1682.84,6275.05
1685.27,6297.15
1687.71,6285.15
1690.14,6268.75
1692.57,6320.85
1695.0,6342.05
1697.43,6268.2
1699.86,6160.45
1702.29,6282.55
1704.71,6313.6
1707.14,6270.1
1709.57,6354.8
1711.99,6407.05
1714.42,6401.6
1716.84,6392.1
1719.26,6474.75
1721.69,6546.15
1724.11,6651.6
1726.53,6711.05
1728.95,6631.2
1731.37,6641.9
1733.79,6706.2
1736.21,6562.2
1738.62,6482.15
1741.04,6422.7
1743.46,6420.05
1745.87,6437.0
1748.28,6400.1
1750.7,6347.35
1753.11,6318.0
1755.52,6290.15
1757.93,6303.6
1760.34,6307.05
1762.75,6302.05
1765.16,6329.25
1767.57,6391.4
1769.98,6342.0
1772.39,6259.95
1774.79,6309.9
1777.2,6343.85
1779.6,6367.3
1782.01,6405.85
1784.41,6416.15
1786.81,6346.9
1789.21,6378.05
1791.62,6360.2
1794.02,6360.45
1796.41,6326.0
1798.81,6294.65
1801.21,6293.65
1803.61,6363.25
1806.01,6394.75
1808.4,6373.1
1810.8,6400.3
1813.19,6315.9
1815.59,6321.6
1817.98,6323.6
1820.37,6362.75
1822.76,6262.35
1825.15,6195.85
1827.54,6263.0
1829.93,6320.75
1832.32,6353.65
1834.71,6368.65
1837.1,6326.05
1839.48,6341.5
1841.87,6284.05
1844.25,6253.35
1846.64,6301.25
1849.02,6363.6
1851.4,6397.3
1853.79,6350.9
1856.17,6270.85
1858.55,6224.0
1860.93,6276.8
1863.31,6377.2
1865.69,6417.1
1868.06,6416.65
1870.44,6419.45
1872.82,6387.5
1875.19,6435.55
1877.57,6365.05
1879.94,6341.65
1882.31,6395.0
1884.69,6379.2
1887.06,6384.7
1889.43,6400.4
1891.8,6386.45
1894.17,6417.95
1896.54,6406.25
1898.91,6392.8
1901.28,6491.95
1903.64,6432.75
1906.01,6410.7
1908.38,6491.35
1910.74,6528.1
1913.1,6430.0
1915.47,6402.95
1917.83,6436.15
1920.19,6385.45
1922.55,6380.4
1924.91,6397.55
1927.27,6436.7
1929.63,6459.9
1931.99,6402.35
1934.35,6422.0
1936.71,6346.9
1939.06,6349.15
1941.42,6349.55
1943.77,6448.5
1946.13,6528.65
1948.48,6454.3
1950.83,6408.0
1953.19,6440.45
1955.54,6413.65
1957.89,6419.05
1960.24,6416.8
1962.59,6411.95
1964.93,6434.05
1967.28,6427.8
1969.63,6382.05
1971.98,6391.9
1974.32,6392.75
1976.67,6395.65
1979.01,6397.35
1981.35,6524.45
1983.7,6576.9
1986.04,6529.0
1988.38,6464.8
1990.72,6535.85
1993.06,6495.4
1995.4,6458.0
1997.74,6442.1
2000.08,6496.2
2002.41,6506.55
2004.75,6464.75
2007.09,6467.1
2009.42,6591.4
2011.75,6616.55
2014.09,6527.6
2016.42,6589.15
2018.75,6537.9
2021.08,6588.7
2023.42,6643.0
2025.75,6621.45
2028.08,6552.55
2030.4,6514.35
2032.73,6507.05
2035.06,6535.05
2037.39,6556.8
2039.71,6580.2
2042.04,6575.35
2044.36,6540.9
2046.69,6559.05
2049.01,6512.9
2051.33,6508.5
2053.65,6516.3
2055.97,6592.95
2058.29,6631.8
2060.61,6586.65
2062.93,6622.85
2065.25,6585.35
2067.57,6528.1
2069.88,6535.75
2072.2,6581.9
2074.52,6562.4
2076.83,6591.45
2079.15,6593.7
2081.46,6587.55
2083.77,6537.8
2086.08,6616.65
2088.39,6652.05
2090.7,6668.55
2093.01,6629.75
2095.32,6636.75
2097.63,6689.6
2099.94,6622.5
2102.25,6615.8
2104.55,6629.15
2106.86,6604.05
2109.16,6675.3
2111.47,6724.25
2113.77,6661.35
2116.08,6627.9
2118.38,6609.6
2120.68,6701.9
2122.98,6668.35
2125.28,6677.7
2127.58,6654.0
2129.88,6693.95
2132.18,6687.7
2134.47,6688.6
2136.77,6705.35
2139.07,6674.35
2141.36,6737.3
2143.66,6724.25
2145.95,6656.3
2148.24,6642.0
2150.54,6725.7
2152.83,6815.75
2155.12,6742.9
2157.41,6779.25
2159.7,6763.55
2161.99,6718.9
2164.28,6707.4
2166.57,6733.6
2168.85,6736.75
2171.14,6798.8
2173.43,6811.4
2175.71,6863.0
2178.0,6731.5
2180.28,6661.3
2182.56,6715.55
2184.84,6819.25
2187.13,6801.35
2189.41,6736.1
2191.69,6770.9
2193.97,6809.7
2196.25,6793.6
2198.52,6671.25
2200.8,6673.7
2203.08,6828.5
2205.36,6934.6
2207.63,6826.2
2209.91,6852.4
2212.18,6885.95
2214.45,6839.15
2216.73,6792.6
2219.0,6785.2
2221.27,6852.15
2223.54,6850.65
2225.81,6846.3
2228.08,6825.7
2230.35,6790.3
2232.62,6873.75
2234.89,6897.8
2237.15,6950.65
2239.42,6871.15
2241.68,6774.25
2243.95,6751.15
2246.21,6832.0
2248.48,6844.7
2250.74,6787.1
2253.0,6875.15
2255.26,6929.6
2257.52,6972.6
2259.78,6982.45
2262.04,6937.05
2264.3,6886.9
2266.56,6869.4
2268.82,6875.4
2271.07,6915.2
2273.33,6939.85
2275.58,6969.35
2277.84,6860.75
2280.09,6852.6
2282.35,6917.3
2284.6,6956.0
2286.85,7030.7
2289.1,6948.55
2291.35,6949.9
2293.6,6952.8
2295.85,6947.65
2298.1,6950.0
2300.35,6992.2
2302.6,6967.65
2304.84,6970.3
2307.09,6958.35
2309.33,7007.05
2311.58,7075.6
2313.82,7187.3
2316.07,7017.0
2318.31,6971.0
2320.55,6992.3
2322.79,7064.45
2325.03,7018.1
2327.27,6994.25
2329.51,7007.8
2331.75,7054.1
2333.99,7084.7
2336.23,7114.5
2338.46,7068.05
2340.7,7064.85
2342.93,7140.3
2345.17,7132.15
2347.4,7139.5
2349.64,7116.75
2351.87,7111.25
2354.1,7038.25
2356.33,7091.0
2358.56,7138.35
2360.79,7113.95
2363.02,7179.0
2365.25,7189.75
2367.48,7159.9
2369.71,7080.85
2371.93,7061.85
2374.16,7140.25
2376.38,7146.55
2378.61,7169.65
2380.83,7098.45
2383.06,7070.9
2385.28,7212.25
2387.5,7292.65
2389.72,7275.85
2391.94,7182.6
2394.16,7174.15
2396.38,7215.3
2398.6,7174.6
2400.82,7241.55
2403.04,7312.65
2405.26,7337.95
2407.47,7319.6
2409.69,7184.1
2411.9,7203.55
2414.12,7263.45
2416.33,7297.95
2418.54,7249.8
2420.76,7327.25
2422.97,7372.1
2425.18,7271.0
2427.39,7341.15
2429.6,7448.75
2431.81,7394.5
2434.02,7345.5
2436.22,7384.1
2438.43,7408.55
2440.64,7375.35
2442.84,7316.35
2445.05,7394.65
2447.25,7398.85
2449.46,7322.25
2451.66,7313.25
2453.86,7352.7
2456.06,7319.25
2458.27,7391.65
2460.47,7439.75
2462.67,7490.35
2464.87,7379.15
2467.06,7352.3
2469.26,7465.25
2471.46,7542.65
2473.66,7492.6
2475.85,7430.15
2478.05,7413.4
2480.24,7375.85
2482.44,7468.3
2484.63,7458.6
2486.82,7503.85
2489.02,7564.7
2491.21,7505.15
2493.4,7398.55
2495.59,7388.85
2497.78,7405.25
2499.97,7519.45
2502.16,7688.85
2504.34,7695.2
2506.53,7550.3
2508.72,7503.55
2510.9,7535.0
2513.09,7500.8
2515.27,7515.25
2517.46,7600.1
2519.64,7565.85
2521.82,7533.45
2524.0,7530.55
2526.19,7709.65
2528.37,7789.6
2530.55,7755.05
2532.73,7641.1
2534.9,7575.5
2537.08,7551.25
2539.26,7572.35
2541.44,7565.75
2543.61,7646.75
2545.79,7661.9
2547.96,7754.9
2550.14,7855.65
2552.31,7705.5
2554.48,7684.05
2556.66,7667.85
2558.83,7721.5
2561.0,7766.05
2563.17,7707.45
2565.34,7676.3
2567.51,7674.25
2569.68,7723.25
2571.85,7669.8
2574.01,7656.75
2576.18,7721.3
2578.35,7793.85
2580.51,7726.55
2582.68,7810.05
2584.84,7772.25
2587.0,7620.6
2589.17,7769.55
2591.33,7862.55
2593.49,7917.0
2595.65,7826.6
2597.81,7860.4
2599.97,7878.95
2602.13,7850.85
2604.29,7835.65
2606.45,7879.65
2608.6,7869.45
2610.76,7902.4
2612.92,7861.4
2615.07,7860.15
2617.23,7808.75
2619.38,7833.75
2621.53,7864.6
2623.69,7953.1
2625.84,7958.4
2627.99,7973.05
2630.14,8009.65
2632.29,8048.8
2634.44,8018.4
2636.59,7942.2
2638.74,7975.35
2640.89,8033.35
2643.03,7950.75
2645.18,7932.25
2647.33,8053.25
2649.47,8046.75
2651.62,7941.6
2653.76,7942.4
2655.9,8093.35
2658.05,8194.55
2660.19,8078.35
2662.33,8024.15
2664.47,8017.35
2666.61,8032.15
2668.75,8093.65
2670.89,8098.25
2673.03,8086.35
2675.17,8190.1
2677.3,8219.45
2679.44,8171.5
2681.58,8109.35
2683.71,7986.45
2685.84,7983.5
2687.98,8144.3
2690.11,8268.55
2692.25,8277.55
2694.38,8162.5
2696.51,8088.7
2698.64,8057.05
2700.77,8111.45
2702.9,8273.75
2705.03,8233.2
2707.16,8102.95
2709.29,8113.05
2711.41,8233.3
2713.54,8221.95
2715.67,8144.0
2717.79,8181.5
2719.92,8260.15
2722.04,8198.15
2724.16,8144.1
2726.29,8227.2
2728.41,8268.9
2730.53,8322.95
2732.65,8255.2
2734.77,8275.55
2736.89,8219.05
2739.01,8218.6
2741.13,8271.25
2743.25,8356.7
2745.36,8372.5
2747.48,8292.2
2749.6,8391.2
2751.71,8358.9
2753.83,8151.75
2755.94,8295.8
2758.06,8439.55
2760.17,8420.2
2762.28,8361.35
2764.39,8316.45
2766.5,8235.4
2768.61,8329.25
2770.72,8378.15
2772.83,8412.65
2774.94,8491.8
2777.05,8495.4
2779.16,8370.35
2781.27,8331.15
2783.37,8275.05
2785.48,8311.95
2787.58,8365.3
2789.69,8369.9
2791.79,8336.45
2793.89,8411.45
2796.0,8531.4
2798.1,8468.05
2800.2,8498.1
2802.3,8494.85
2804.4,8487.8
2806.5,8410.7
2808.6,8427.85
2810.7,8404.8
2812.8,8416.75
2814.89,8450.15
2816.99,8522.75
2819.09,8531.85
2821.18,8650.85
2823.28,8561.5
2825.37,8433.35
2827.46,8221.8
2829.56,8380.4
2831.65,8415.85
2833.74,8455.8
2835.83,8488.8
2837.92,8431.3
2840.01,8449.95
2842.1,8454.15
2844.19,8549.75
2846.28,8588.2
2848.37,8564.8
2850.45,8508.45
2852.54,8623.95
2854.63,8681.75
2856.71,8496.0
2858.8,8510.75
2860.88,8529.75
2862.96,8670.2
2865.05,8776.75
2867.13,8772.6
2869.21,8729.5
2871.29,8607.2
2873.37,8571.35
2875.45,8732.15
2877.53,8716.25
2879.61,8654.85
2881.69,8642.85
2883.76,8620.7
2885.84,8554.55
2887.92,8512.5
2889.99,8562.95
2892.07,8660.75
2894.14,8638.75
2896.22,8736.7
2898.29,8851.55
2900.36,8882.45
2902.43,8803.3
2904.5,8767.0
2906.58,8742.1
2908.65,8815.3
2910.72,8865.3
2912.78,8863.95
2914.85,8871.15
2916.92,8853.05
2918.99,8829.85
2921.05,8671.15
2923.12,8541.4
2925.19,8539.25
2927.25,8695.25
2929.32,8697.7
2931.38,8661.95
2933.44,8801.1
2935.5,8868.45
2937.57,8787.4
2939.63,8648.9
2941.69,8693.35
2943.75,8701.5
2945.81,8814.15
2947.87,8697.6
2949.93,8710.1
2951.98,8695.25
2954.04,8652.65
2956.1,8817.7
2958.15,8824.95
2960.21,8843.0
2962.26,8910.65
2964.32,8834.4
2966.37,8818.8
2968.42,8794.4
2970.48,8628.55
2972.53,8581.9
2974.58,8744.65
2976.63,8922.4
2978.68,8875.2
2980.73,8801.35
2982.78,8868.0
2984.83,8905.9
2986.87,8884.5
2988.92,8809.35
2990.97,8781.0
2993.01,8753.35
2995.06,8723.65
2997.1,8783.5
2999.15,8936.65
3001.19,8919.55
3003.24,8892.65
3005.28,8972.45
3007.32,8914.5
3009.36,8753.85
3011.4,8740.6
3013.44,8839.1
3015.48,8844.6
3017.52,8919.1
3019.56,8972.6
3021.6,8894.65
3023.63,8716.15
3025.67,8722.6
3027.71,8865.1
3029.74,8921.95
3031.78,8788.5
3033.81,8790.6
3035.85,8822.8
3037.88,8916.95
3039.91,9000.4
3041.94,8987.6
3043.97,8858.85
3046.01,8866.7
3048.04,8785.7
3050.07,8856.2
3052.09,8915.8
3054.12,8872.1
3056.15,8979.95
3058.18,8969.35
3060.2,9057.8
3062.23,9091.65
3064.26,8994.75
3066.28,8897.05
3068.31,8898.15
3070.33,8859.55
3072.35,8822.9
