cm-1,Intensity
-123.878,1855.05
-120.866,1855.6
-117.855,1854.75
-114.845,1854.6
-111.836,1855.0
-108.828,1854.8
-105.821,1854.65
-102.815,1855.15
-99.8104,1856.3
-96.8065,1854.25
-93.8036,1855.4
-90.8016,1854.3
-87.8007,1855.25
-84.8008,1855.75
-81.8019,1855.9
-78.8039,1855.55
-75.807,1855.15
-72.8111,1855.9
-69.8161,1855.2
-66.8222,1856.15
-63.8293,1854.3
-60.8373,1856.25
-57.8464,1855.4
-54.8564,1856.45
-51.8675,1856.15
-48.8795,1854.65
-45.8926,1856.55
-42.9066,1857.85
-39.9216,1857.15
-36.9377,1856.55
-33.9547,1857.55
-30.9727,1857.75
-27.9917,1856.8
-25.0117,1858.3
-22.0326,1858.65
-19.0546,1861.4
-16.0776,1874.6
-13.1015,1931.4
-10.1265,2134.4
-7.1524,2564.35
-4.17932,2879.85
-1.20723,2949.35
1.76388,2719.7
4.734,2231.0
7.70313,1928.95
10.6713,1862.9
13.6384,1858.0
16.6046,1856.85
19.5698,1858.4
22.534,1857.65
25.4972,1857.25
28.4595,1856.85
31.4207,1857.7
34.381,1861.05
37.3403,1860.05
40.2986,1861.0
43.256,1864.85
46.2123,1877.15
49.1677,1914.95
52.1221,2022.1
55.0755,2219.45
58.0279,2502.05
60.9794,2793.4
63.9299,3020.2
66.8794,3183.75
69.8279,3271.55
72.7754,3342.15
75.722,3380.9
78.6676,3365.2
81.6122,3388.7
84.5559,3376.85
87.4985,3397.45
90.4402,3452.9
93.381,3452.1
96.3207,3478.45
99.2595,3522.35
102.197,3544.15
105.134,3509.95
108.07,3530.55
111.005,3562.05
113.939,3610.25
116.872,3641.9
119.804,3681.85
122.735,3659.55
125.665,3629.9
128.594,3598.2
131.522,3582.65
134.449,3568.4
137.375,3576.35
140.301,3586.65
143.225,3608.8
146.148,3630.2
149.07,3657.4
151.992,3655.5
154.912,3677.9
157.832,3606.85
160.75,3586.0
163.668,3682.05
166.584,3687.4
169.5,3671.05
172.414,3696.9
175.328,3670.1
178.241,3672.3
181.153,3694.3
184.063,3746.55
186.973,3718.5
189.882,3716.1
192.79,3763.8
195.697,3767.85
198.603,3734.0
201.508,3772.15
204.412,3760.3
207.315,3768.45
210.217,3790.05
213.119,3776.85
216.019,3751.05
218.918,3771.4
221.816,3771.4
224.714,3818.25
227.61,3777.85
230.506,3760.55
233.4,3772.8
236.294,3793.0
239.187,3808.5
242.078,3835.3
244.969,3862.6
247.859,3851.15
250.748,3850.15
253.636,3846.45
256.523,3882.55
259.409,3876.25
262.294,3879.3
265.178,3906.5
268.061,3864.2
270.943,3850.2
273.824,3894.9
276.705,3906.35
279.584,3919.4
282.463,3953.7
285.34,3908.1
288.217,3926.05
291.092,3981.75
293.967,3972.6
296.841,3906.25
299.713,3922.4
302.585,3993.25
305.456,4011.05
308.326,4012.45
311.195,3964.95
314.063,3974.4
316.93,3963.75
319.797,3953.1
322.662,3973.55
325.526,3990.75
328.389,3970.15
331.252,3962.85
334.113,3990.25
336.974,4050.0
339.834,4068.35
342.692,4086.45
345.55,4027.15
348.407,4076.55
351.263,4058.65
354.118,4088.35
356.972,4085.55
359.825,4122.35
362.677,4116.25
365.529,4101.55
368.379,4141.35
371.228,4150.9
374.077,4155.5
376.924,4158.0
379.771,4091.1
382.616,4113.55
385.461,4142.8
388.305,4168.8
391.148,4156.45
393.99,4198.7
396.831,4179.15
399.671,4207.25
402.51,4216.4
405.348,4178.4
408.186,4175.2
411.022,4212.05
413.858,4208.7
416.692,4219.15
419.526,4234.05
422.359,4240.2
425.19,4170.6
428.021,4215.0
430.851,4229.7
433.68,4238.8
436.508,4251.25
439.335,4261.45
442.162,4306.1
444.987,4284.2
447.811,4215.6
450.635,4156.75
453.458,4178.2
456.279,4197.65
459.1,4239.35
461.92,4296.5
464.739,4318.55
467.557,4361.45
470.374,4385.0
473.19,4370.65
476.005,4368.1
478.82,4317.3
481.633,4285.9
484.445,4276.85
487.257,4388.0
490.068,4371.8
492.878,4289.75
495.686,4302.85
498.494,4323.9
501.301,4359.05
504.107,4470.25
506.913,4421.65
509.717,4433.4
512.52,4392.95
515.323,4375.9
518.124,4334.05
520.925,4310.4
523.725,4400.1
526.524,4484.45
529.322,4466.6
532.119,4433.65
534.915,4456.35
537.71,4447.55
540.504,4388.25
543.298,4412.05
546.09,4456.8
548.882,4468.1
551.673,4509.75
554.462,4531.55
557.251,4484.2
560.039,4498.05
562.826,4556.85
565.613,4551.25
568.398,4582.3
571.182,4553.25
573.966,4537.05
576.748,4557.35
579.53,4528.2
582.311,4492.55
585.091,4516.6
587.87,4526.7
590.648,4522.75
593.425,4563.15
596.201,4589.9
598.977,4597.1
601.751,4536.45
604.525,4583.25
607.298,4563.8
610.069,4569.2
612.84,4640.15
615.61,4594.95
618.38,4541.3
621.148,4536.15
623.915,4542.25
626.682,4569.3
629.447,4600.95
632.212,4639.9
634.976,4615.9
637.739,4622.55
640.501,4729.8
643.262,4742.8
646.022,4774.85
648.781,4731.8
651.54,4692.75
654.297,4692.65
657.054,4735.05
659.81,4704.2
662.565,4769.0
665.319,4704.55
668.072,4672.05
670.824,4760.4
673.575,4780.65
676.326,4757.85
679.075,4701.8
681.824,4765.9
684.572,4795.35
687.319,4800.0
690.065,4797.95
692.81,4746.55
695.554,4720.15
698.298,4785.4
701.04,4703.95
703.782,4702.15
706.522,4754.7
709.262,4789.1
712.001,4815.25
714.739,4773.45
717.477,4774.85
720.213,4833.2
722.948,4921.6
725.683,4805.15
728.417,4752.65
731.15,4789.75
733.882,4844.45
736.613,4920.7
739.343,4949.3
742.072,4936.15
744.801,4883.15
747.528,4802.05
750.255,4863.55
752.981,4910.3
755.706,4902.75
758.43,4993.5
761.153,4949.35
763.875,4934.2
766.597,4912.1
769.317,4938.15
772.037,4984.45
774.756,4948.45
777.474,4870.35
780.191,4873.65
782.907,4931.55
785.623,4946.8
788.337,4944.4
791.051,4983.75
793.764,5000.75
796.475,4973.45
799.186,4981.3
801.897,4939.0
804.606,4948.15
807.314,5018.15
810.022,5037.95
812.729,5060.45
815.434,5068.4
818.139,5076.75
820.844,5057.95
823.547,4986.2
826.249,5006.45
828.951,5020.05
831.651,5033.9
834.351,5040.85
837.05,5113.8
839.748,5091.15
842.445,5026.8
845.142,5099.5
847.837,5093.2
850.532,5092.0
853.225,5074.6
855.918,5041.05
858.61,4985.45
861.302,5107.6
863.992,5112.75
866.681,5162.85
869.37,5169.65
872.058,5144.6
874.745,5126.2
877.431,5123.4
880.116,5190.65
882.8,5227.0
885.484,5194.15
888.166,5191.15
890.848,5196.65
893.529,5171.15
896.209,5150.25
898.888,5132.8
901.566,5148.45
904.244,5245.25
906.921,5240.25
909.596,5277.75
912.271,5261.7
914.945,5255.9
917.619,5257.9
920.291,5232.0
922.963,5265.95
925.633,5285.05
928.303,5324.95
930.972,5329.5
933.64,5357.55
936.308,5356.95
938.974,5312.35
941.64,5293.5
944.304,5243.9
946.968,5248.1
949.631,5303.45
952.294,5275.55
954.955,5284.95
957.615,5263.05
960.275,5267.25
962.934,5379.4
965.592,5428.15
968.249,5420.45
970.905,5431.85
973.561,5332.95
976.215,5370.35
978.869,5435.1
981.522,5493.2
984.174,5477.7
986.826,5463.4
989.476,5346.75
992.126,5411.8
994.774,5473.5
997.422,5491.85
1000.07,5499.0
1002.72,5461.25
1005.36,5419.95
1008.01,5445.85
1010.65,5422.9
1013.29,5386.4
1015.93,5427.35
1018.58,5513.15
1021.22,5562.15
1023.86,5572.75
1026.49,5523.55
1029.13,5474.7
1031.77,5454.65
1034.4,5356.55
1037.04,5464.4
1039.67,5571.7
1042.31,5562.3
1044.94,5529.15
1047.57,5526.15
1050.2,5598.4
1052.83,5629.4
1055.46,5556.4
1058.09,5583.9
1060.72,5582.75
1063.35,5588.75
1065.97,5674.25
1068.6,5685.15
1071.22,5648.2
1073.85,5619.95
1076.47,5735.1
1079.09,5762.2
1081.71,5641.05
1084.33,5552.55
1086.95,5526.25
1089.57,5695.0
1092.19,5821.2
1094.81,5756.15
1097.42,5712.25
1100.04,5684.85
1102.65,5666.8
1105.27,5684.05
1107.88,5675.75
1110.49,5709.7
1113.1,5767.35
1115.71,5741.7
1118.32,5697.1
1120.93,5684.6
1123.54,5696.3
1126.15,5724.9
1128.75,5779.6
1131.36,5861.1
1133.97,5837.4
1136.57,5773.15
1139.17,5828.0
1141.77,5752.65
1144.38,5700.35
1146.98,5709.6
1149.58,5727.45
1152.18,5740.2
1154.77,5759.8
1157.37,5788.15
1159.97,5815.3
1162.56,5771.5
1165.16,5807.7
1167.75,5851.45
1170.35,5850.65
1172.94,5903.1
1175.53,5809.7
1178.12,5761.1
1180.71,5870.8
1183.3,5874.15
1185.89,5878.0
1188.48,5944.25
1191.06,6000.95
1193.65,5934.25
1196.23,5916.45
1198.82,5902.4
1201.4,5941.75
1203.99,5922.15
1206.57,5903.85
1209.15,5941.4
1211.73,5912.75
1214.31,5891.5
1216.89,5907.1
1219.46,6050.55
1222.04,6111.7
1224.62,5885.3
1227.19,5836.45
1229.77,5979.5
1232.34,6053.3
1234.92,6020.1
1237.49,6028.95
1240.06,6085.55
1242.63,6051.35
1245.2,6025.45
1247.77,6074.25
1250.34,5960.9
1252.9,5971.35
1255.47,6139.1
1258.04,6172.7
1260.6,6184.25
1263.17,6101.5
1265.73,6080.95
1268.29,6097.75
1270.85,6060.1
1273.41,6054.5
1275.97,6049.75
1278.53,6113.4
1281.09,6210.8
1283.65,6229.2
1286.21,6119.75
1288.76,5992.25
1291.32,6049.0
1293.87,6185.15
1296.43,6286.3
1298.98,6242.85
1301.53,6295.65
1304.08,6299.25
1306.63,6331.25
1309.18,6333.05
1311.73,6304.65
1314.28,6203.95
1316.83,6159.8
1319.38,6279.75
1321.92,6395.7
1324.47,6338.05
1327.01,6246.25
1329.55,6284.85
1332.1,6324.4
1334.64,6343.95
1337.18,6385.75
1339.72,6393.85
1342.26,6331.4
1344.8,6245.6
1347.34,6325.2
1349.87,6362.35
1352.41,6307.5
1354.95,6338.5
1357.48,6362.95
1360.01,6357.5
1362.55,6243.75
1365.08,6128.95
1367.61,6287.8
1370.14,6261.75
1372.67,6278.7
1375.2,6354.7
1377.73,6351.0
1380.26,6254.0
1382.78,6270.5
1385.31,6288.5
1387.84,6222.5
1390.36,6244.5
1392.88,6268.0
1395.41,6295.55
1397.93,6365.25
1400.45,6393.6
1402.97,6400.45
1405.49,6325.3
1408.01,6224.5
1410.53,6245.3
1413.05,6348.65
1415.56,6325.25
1418.08,6371.9
1420.59,6470.0
1423.11,6333.15
1425.62,6355.75
1428.14,6307.9
1430.65,6348.25
1433.16,6510.45
1435.67,6589.75
1438.18,6441.25
1440.69,6442.8
1443.2,6380.55
1445.7,6387.5
1448.21,6411.95
1450.72,6406.15
1453.22,6508.4
1455.72,6407.85
1458.23,6346.4
1460.73,6377.55
1463.23,6462.4
1465.73,6459.5
1468.23,6384.15
1470.73,6388.35
1473.23,6352.95
1475.73,6427.75
1478.23,6447.3
1480.72,6403.25
1483.22,6471.05
1485.72,6454.2
1488.21,6421.6
1490.7,6296.55
1493.2,6295.2
1495.69,6392.0
1498.18,6454.9
1500.67,6329.1
1503.16,6333.6
1505.65,6351.05
1508.14,6400.95
1510.62,6602.9
1513.11,6642.1
1515.59,6549.7
1518.08,6410.6
1520.56,6442.25
1523.05,6551.5
1525.53,6617.8
1528.01,6494.8
1530.49,6471.9
1532.97,6528.45
1535.45,6456.25
1537.93,6512.75
1540.41,6547.15
1542.89,6583.25
1545.36,6630.65
1547.84,6671.75
1550.31,6690.2
1552.79,6715.6
1555.26,6758.0
1557.73,6751.5
1560.21,6621.7
1562.68,6605.4
1565.15,6694.7
1567.62,6775.5
1570.09,6784.8
1572.56,6698.9
1575.02,6707.7
1577.49,6749.6
1579.95,6699.7
1582.42,6698.35
1584.88,6742.7
1587.35,6629.35
1589.81,6591.1
1592.27,6621.2
1594.73,6742.3
1597.19,6764.45
1599.65,6759.95
1602.11,6743.5
1604.57,6663.25
1607.03,6646.85
1609.49,6665.6
1611.94,6584.6
1614.4,6451.7
1616.85,6495.35
1619.31,6532.75
1621.76,6568.6
1624.21,6643.2
1626.66,6592.75
1629.11,6521.0
1631.56,6551.75
1634.01,6458.0
1636.46,6530.15
1638.91,6555.0
1641.36,6499.1
1643.8,6579.5
1646.25,6561.65
1648.69,6534.0
1651.14,6501.25
1653.58,6582.35
1656.02,6463.9
1658.46,6309.9
1660.9,6334.55
1663.35,6426.95
1665.78,6463.2
1668.22,6577.65
1670.66,6489.0
1673.1,6482.15
1675.54,6515.25
1677.97,6452.75
1680.41,6413.35
1682.84,6439.2
1685.27,6440.45
1687.71,6438.75
1690.14,6417.35
1692.57,6487.25
1695.0,6485.55
1697.43,6461.3
1699.86,6416.7
1702.29,6504.8
1704.71,6492.5
1707.14,6512.1
1709.57,6392.55
1711.99,6421.15
1714.42,6498.1
1716.84,6497.1
1719.26,6383.25
1721.69,6317.15
1724.11,6353.35
1726.53,6487.35
1728.95,6486.2
1731.37,6441.25
1733.79,6417.0
1736.21,6411.9
1738.62,6348.55
1741.04,6268.15
1743.46,6357.2
1745.87,6513.9
1748.28,6507.45
1750.7,6514.5
1753.11,6447.9
1755.52,6390.15
1757.93,6432.5
1760.34,6502.25
1762.75,6549.0
1765.16,6503.95
1767.57,6497.85
1769.98,6528.1
1772.39,6583.3
1774.79,6530.85
1777.2,6420.6
1779.6,6568.2
1782.01,6642.3
1784.41,6617.05
1786.81,6538.4
1789.21,6608.1
1791.62,6534.6
1794.02,6478.45
1796.41,6495.65
1798.81,6505.05
1801.21,6581.4
1803.61,6584.1
1806.01,6491.4
1808.4,6369.35
1810.8,6450.6
1813.19,6552.35
1815.59,6506.65
1817.98,6575.75
1820.37,6620.2
1822.76,6576.85
1825.15,6400.75
1827.54,6403.15
1829.93,6410.9
1832.32,6493.5
1834.71,6481.6
1837.1,6440.5
1839.48,6483.3
1841.87,6553.5
1844.25,6544.95
1846.64,6488.65
1849.02,6514.1
1851.4,6564.1
1853.79,6440.1
1856.17,6421.05
1858.55,6491.2
1860.93,6541.4
1863.31,6605.65
1865.69,6602.35
1868.06,6523.9
1870.44,6584.1
1872.82,6653.2
1875.19,6569.95
1877.57,6435.7
1879.94,6604.1
1882.31,6594.3
1884.69,6491.75
1887.06,6618.35
1889.43,6600.8
1891.8,6549.9
1894.17,6508.25
1896.54,6496.2
1898.91,6674.8
1901.28,6762.0
1903.64,6675.65
1906.01,6587.15
1908.38,6604.15
1910.74,6598.7
1913.1,6645.05
1915.47,6659.45
1917.83,6670.6
1920.19,6617.7
1922.55,6555.15
1924.91,6598.9
1927.27,6691.2
1929.63,6621.05
1931.99,6589.65
1934.35,6591.15
1936.71,6627.3
1939.06,6654.35
1941.42,6571.15
1943.77,6443.55
1946.13,6565.0
1948.48,6574.8
1950.83,6626.5
1953.19,6658.05
1955.54,6626.55
1957.89,6601.1
1960.24,6598.95
1962.59,6588.3
1964.93,6583.5
1967.28,6466.9
1969.63,6544.45
1971.98,6631.4
1974.32,6717.8
1976.67,6596.75
1979.01,6523.75
1981.35,6559.8
1983.7,6671.7
1986.04,6726.35
1988.38,6671.9
1990.72,6666.0
1993.06,6686.0
1995.4,6711.1
1997.74,6662.75
2000.08,6683.05
2002.41,6702.9
2004.75,6707.3
2007.09,6798.55
2009.42,6872.15
2011.75,6744.15
2014.09,6622.35
2016.42,6566.1
2018.75,6657.3
2021.08,6795.6
2023.42,6905.25
2025.75,6779.55
2028.08,6668.9
2030.4,6622.95
2032.73,6747.2
2035.06,6656.3
2037.39,6656.7
2039.71,6748.95
2042.04,6845.4
2044.36,6762.9
2046.69,6760.6
2049.01,6790.4
2051.33,6730.1
2053.65,6739.95
2055.97,6696.25
2058.29,6776.4
2060.61,6707.55
2062.93,6589.9
2065.25,6574.85
2067.57,6725.15
2069.88,6812.6
2072.2,6897.3
2074.52,6796.2
2076.83,6706.2
2079.15,6750.8
2081.46,6865.7
2083.77,6739.9
2086.08,6603.9
2088.39,6707.4
2090.7,6829.25
2093.01,6795.45
2095.32,6771.9
2097.63,6735.2
2099.94,6768.5
2102.25,6737.3
2104.55,6703.7
2106.86,6774.9
2109.16,6802.05
2111.47,6881.35
2113.77,6807.5
2116.08,6795.95
2118.38,6739.45
2120.68,6641.75
2122.98,6745.9
2125.28,6735.1
2127.58,6787.05
2129.88,6809.85
2132.18,6850.6
2134.47,6848.05
2136.77,6859.75
2139.07,6958.45
2141.36,6896.05
2143.66,6862.4
2145.95,6825.85
2148.24,6765.75
2150.54,6751.0
2152.83,6797.75
2155.12,6779.4
2157.41,6772.35
2159.7,6788.45
2161.99,6776.05
2164.28,6774.65
2166.57,6792.0
2168.85,6791.9
2171.14,6754.7
2173.43,6783.15
2175.71,6768.55
2178.0,6818.6
2180.28,6959.7
2182.56,6847.45
2184.84,6790.95
2187.13,6819.25
2189.41,6865.45
2191.69,6949.1
2193.97,6908.6
2196.25,6823.95
2198.52,6890.4
2200.8,6891.3
2203.08,6899.75
2205.36,6727.2
2207.63,6639.6
2209.91,6735.9
2212.18,6743.3
2214.45,6782.7
2216.73,6755.7
2219.0,6866.15
2221.27,6878.9
2223.54,6826.25
2225.81,6786.05
2228.08,6667.95
2230.35,6660.55
2232.62,6767.5
2234.89,6822.35
2237.15,6877.9
2239.42,6987.65
2241.68,6879.3
2243.95,6718.95
2246.21,6676.95
2248.48,6769.3
2250.74,6889.1
2253.0,6994.6
2255.26,6958.1
2257.52,6719.55
2259.78,6765.6
2262.04,6827.05
2264.3,6822.75
2266.56,6829.65
2268.82,6923.35
2271.07,6733.75
2273.33,6679.95
2275.58,6759.0
2277.84,6891.7
2280.09,6979.0
2282.35,6854.05
2284.6,6770.3
2286.85,6752.5
2289.1,6732.15
2291.35,6768.5
2293.6,6801.75
2295.85,6854.65
2298.1,6896.05
2300.35,6927.3
2302.6,6861.15
2304.84,6679.95
2307.09,6611.45
2309.33,6744.7
2311.58,6862.35
2313.82,6862.35
2316.07,6860.05
2318.31,6921.95
2320.55,6947.05
2322.79,6867.8
2325.03,6734.7
2327.27,6801.25
2329.51,6878.25
2331.75,6847.6
2333.99,6899.5
2336.23,6782.85
2338.46,6734.5
2340.7,6713.8
2342.93,6895.4
2345.17,7104.4
2347.4,6925.15
2349.64,6850.05
2351.87,6783.3
2354.1,6680.15
2356.33,6646.4
2358.56,6772.45
2360.79,6886.6
2363.02,6862.75
2365.25,6769.7
2367.48,6743.15
2369.71,6731.55
2371.93,6810.45
2374.16,6845.3
2376.38,6754.4
2378.61,6893.25
2380.83,6956.55
2383.06,6991.65
2385.28,6936.75
2387.5,6753.8
2389.72,6672.9
2391.94,6711.65
2394.16,6752.4
2396.38,6782.2
2398.6,6783.0
2400.82,7034.5
2403.04,7014.2
2405.26,6822.25
2407.47,6751.9
2409.69,6754.8
2411.9,6881.45
2414.12,7028.65
2416.33,6873.2
2418.54,6663.5
2420.76,6739.8
2422.97,6835.2
2425.18,6854.45
2427.39,6906.75
2429.6,6969.4
2431.81,6955.3
2434.02,6792.3
2436.22,6749.6
2438.43,6863.95
2440.64,6921.35
2442.84,6875.85
2445.05,6937.3
2447.25,6921.7
2449.46,6960.75
2451.66,6944.25
2453.86,6685.35
2456.06,6601.95
2458.27,6671.75
2460.47,6813.0
2462.67,6768.5
2464.87,6724.85
2467.06,6806.05
2469.26,6864.75
2471.46,6857.25
2473.66,6812.6
2475.85,6935.8
2478.05,6884.55
2480.24,6723.05
2482.44,6753.95
2484.63,6733.35
2486.82,6825.6
2489.02,6766.9
2491.21,6867.8
2493.4,6913.8
2495.59,6894.2
2497.78,6928.8
2499.97,6768.0
2502.16,6684.1
2504.34,6742.25
2506.53,6828.25
2508.72,6910.35
2510.9,6840.15
2513.09,6789.15
2515.27,6781.05
2517.46,6919.9
2519.64,7015.85
2521.82,6938.05
2524.0,6834.2
2526.19,6788.3
2528.37,6779.8
2530.55,6811.55
2532.73,6831.6
2534.9,6773.25
2537.08,6818.3
2539.26,6810.2
2541.44,6718.8
2543.61,6695.85
2545.79,6726.8
2547.96,6951.6
2550.14,6994.25
2552.31,7009.45
2554.48,6953.1
2556.66,6823.2
2558.83,6639.2
2561.0,6670.15
2563.17,6841.15
2565.34,6990.15
2567.51,6912.75
2569.68,6869.65
2571.85,6871.3
2574.01,6827.6
2576.18,6803.45
2578.35,6737.1
2580.51,6666.15
2582.68,6745.2
2584.84,6825.95
2587.0,6778.7
2589.17,6721.9
2591.33,6739.85
2593.49,6791.05
2595.65,6839.45
2597.81,6877.0
2599.97,6879.15
2602.13,6952.45
2604.29,6952.3
2606.45,6831.35
2608.6,6744.4
2610.76,6695.85
2612.92,6761.85
2615.07,6920.35
2617.23,6926.35
2619.38,6834.5
2621.53,6842.75
2623.69,6836.5
2625.84,6752.7
2627.99,6723.15
2630.14,6797.05
2632.29,6822.65
2634.44,6840.85
2636.59,6802.9
2638.74,6904.6
2640.89,7054.6
2643.03,6884.0
2645.18,6934.0
2647.33,6837.65
2649.47,6874.35
2651.62,6915.2
2653.76,6808.85
2655.9,6897.75
2658.05,6933.25
2660.19,6927.8
2662.33,6823.75
2664.47,6727.65
2666.61,6762.05
2668.75,6798.1
2670.89,6845.25
2673.03,6948.8
2675.17,6912.35
2677.3,6803.45
2679.44,6860.4
2681.58,6864.75
2683.71,6818.9
2685.84,6770.75
2687.98,6853.5
2690.11,6871.55
2692.25,6701.5
2694.38,6697.75
2696.51,6764.3
2698.64,6851.65
2700.77,6822.6
2702.9,6721.35
2705.03,6766.2
2707.16,6932.35
2709.29,6857.4
2711.41,6707.15
2713.54,6730.8
2715.67,6835.4
2717.79,6921.0
2719.92,6882.55
2722.04,6851.9
2724.16,6902.3
2726.29,6706.3
2728.41,6735.55
2730.53,6820.9
2732.65,6795.5
2734.77,6758.4
2736.89,6657.15
2739.01,6710.75
2741.13,6855.0
2743.25,6815.05
2745.36,6817.65
2747.48,6774.8
2749.6,6838.6
2751.71,6977.9
2753.83,6940.1
2755.94,6759.95
2758.06,6771.5
2760.17,6860.8
2762.28,6854.4
2764.39,6785.3
2766.5,6752.55
2768.61,6697.35
2770.72,6738.6
2772.83,6788.9
2774.94,6817.4
2777.05,6700.8
2779.16,6710.05
2781.27,6819.1
2783.37,6750.95
2785.48,6673.35
2787.58,6781.15
2789.69,6928.9
2791.79,7032.25
2793.89,6881.4
2796.0,6806.7
2798.1,6701.2
2800.2,6756.65
2802.3,6843.85
2804.4,6740.85
2806.5,6700.65
2808.6,6696.35
2810.7,6593.4
2812.8,6667.4
2814.89,6801.4
2816.99,6845.15
2819.09,6899.6
2821.18,6868.95
2823.28,6779.95
2825.37,6704.15
2827.46,6755.55
2829.56,6728.95
2831.65,6713.25
2833.74,6708.85
2835.83,6823.95
2837.92,6941.4
2840.01,6924.9
2842.1,6999.2
2844.19,6985.95
2846.28,6885.75
2848.37,6800.85
2850.45,6784.65
2852.54,6835.45
2854.63,7064.25
2856.71,7113.3
2858.8,7086.2
2860.88,6978.15
2862.96,6942.95
2865.05,6816.65
2867.13,6767.85
2869.21,6773.35
2871.29,6999.25
2873.37,7031.45
2875.45,6979.25
2877.53,7020.5
2879.61,6967.6
2881.69,6894.35
2883.76,6847.95
2885.84,6894.4
2887.92,6920.3
2889.99,6899.6
2892.07,6934.85
2894.14,6952.6
2896.22,6957.25
2898.29,6982.4
2900.36,6847.25
2902.43,6739.45
2904.5,6819.0
2906.58,6842.7
2908.65,6898.9
2910.72,6950.55
2912.78,6938.95
2914.85,6939.75
2916.92,6975.7
2918.99,6748.25
2921.05,6669.7
2923.12,6657.25
2925.19,6775.75
2927.25,6931.5
2929.32,6923.95
2931.38,6786.05
2933.44,6900.7
2935.5,6827.5
2937.57,6704.45
2939.63,6599.7
2941.69,6533.45
2943.75,6675.55
2945.81,6635.9
2947.87,6573.1
2949.93,6786.35
2951.98,6753.45
2954.04,6746.05
2956.1,6700.5
2958.15,6671.3
2960.21,6669.95
2962.26,6648.75
2964.32,6613.0
2966.37,6611.3
2968.42,6572.85
2970.48,6569.25
2972.53,6672.65
2974.58,6843.15
2976.63,6809.5
2978.68,6708.0
2980.73,6696.1
2982.78,6678.45
2984.83,6618.2
2986.87,6668.9
2988.92,6619.2
2990.97,6584.8
2993.01,6672.9
2995.06,6705.2
2997.1,6726.8
2999.15,6688.3
3001.19,6531.0
3003.24,6602.45
3005.28,6612.25
3007.32,6713.15
3009.36,6750.65
3011.4,6651.8
3013.44,6742.8
3015.48,6573.05
3017.52,6568.5
3019.56,6621.4
3021.6,6574.0
3023.63,6509.2
3025.67,6608.4
3027.71,6598.95
3029.74,6563.65
3031.78,6489.15
3033.81,6470.85
3035.85,6449.25
3037.88,6606.5
3039.91,6687.15
3041.94,6735.7
3043.97,6666.4
3046.01,6621.55
3048.04,6548.45
3050.07,6616.65
3052.09,6537.55
3054.12,6340.5
3056.15,6455.05
3058.18,6491.45
3060.2,6588.2
3062.23,6577.55
3064.26,6590.15
3066.28,6490.95
3068.31,6457.55
3070.33,6481.35
