nm,Intensity
526.495,828.5
526.632,830.8
526.768,828.8
526.905,828.1
527.042,828.7
527.179,831.0
527.315,829.4
527.452,829.4
527.589,828.7
527.725,829.5
527.862,829.5
527.999,829.2
528.136,828.7
528.272,829.7
528.409,827.6
528.546,828.9
528.682,828.7
528.819,828.9
528.955,829.8
529.092,828.7
529.229,830.3
529.365,828.7
529.502,828.8
529.639,829.0
529.775,829.5
529.912,829.0
530.048,829.7
530.185,829.4
530.321,828.4
530.458,831.1
530.594,829.6
530.731,829.2
530.867,828.4
531.004,827.9
531.14,828.7
531.277,829.1
531.413,828.4
531.55,829.8
531.686,829.3
531.823,829.0
531.959,830.4
532.096,839.1
532.232,841.8
532.369,832.2
532.505,828.9
532.641,829.4
532.778,829.5
532.914,828.6
533.051,829.1
533.187,830.4
533.323,828.2
533.46,828.6
533.596,828.7
533.732,834.1
533.869,854.8
534.005,880.2
534.141,888.5
534.278,884.7
534.414,882.3
534.55,880.9
534.687,888.9
534.823,894.4
534.959,896.4
535.095,903.4
535.232,903.3
535.368,897.0
535.504,880.7
535.64,871.2
535.777,861.0
535.913,857.1
536.049,852.9
536.185,854.1
536.321,851.5
536.457,851.9
536.594,854.3
536.73,863.3
536.866,867.8
537.002,874.7
537.138,878.2
537.274,875.8
537.41,867.0
537.547,859.7
537.683,856.6
537.819,851.9
537.955,850.4
538.091,853.7
538.227,850.0
538.363,851.8
538.499,850.9
538.635,849.3
538.771,851.3
538.907,854.7
539.043,853.0
539.179,860.2
539.315,866.7
539.451,861.7
539.587,858.3
539.723,854.5
539.859,852.1
539.995,849.1
540.131,846.3
540.267,845.2
540.403,844.1
540.539,844.6
540.675,844.1
540.811,846.0
540.947,844.7
541.083,847.2
541.219,851.4
541.354,853.8
541.49,855.1
541.626,848.4
541.762,846.1
541.898,845.2
542.034,846.9
542.17,844.1
542.305,843.0
542.441,842.6
542.577,843.2
542.713,844.2
542.849,845.2
542.984,843.9
543.12,846.3
543.256,849.0
543.392,859.4
543.528,880.8
543.663,920.3
543.799,918.1
543.935,879.4
544.071,863.3
544.206,854.5
544.342,850.9
544.478,848.9
544.613,848.7
544.749,846.7
544.885,849.0
545.02,851.0
545.156,859.7
545.292,868.4
545.427,873.2
545.563,864.2
545.699,854.3
545.834,846.8
545.97,844.5
546.106,846.0
546.241,844.6
546.377,844.0
546.512,843.1
546.648,842.8
546.784,844.0
546.919,844.6
547.055,844.3
547.19,847.7
547.326,851.0
547.461,859.7
547.597,862.9
547.732,857.7
547.868,851.4
548.003,849.0
548.139,844.1
548.274,844.4
548.41,842.3
548.545,842.0
548.681,841.3
548.816,842.3
548.952,841.6
549.087,841.1
549.223,838.4
549.358,838.2
549.494,841.6
549.629,839.7
549.764,839.3
549.9,839.5
550.035,839.6
550.171,839.4
550.306,841.8
550.441,840.5
550.577,841.1
550.712,841.5
550.847,840.2
550.983,837.9
551.118,838.6
551.253,841.0
551.389,839.3
551.524,839.5
551.659,838.9
551.795,839.6
551.93,839.4
552.065,839.7
552.201,838.7
552.336,841.1
552.471,841.8
552.606,839.5
552.742,841.1
552.877,840.8
553.012,840.2
553.147,841.9
553.283,839.9
553.418,842.1
553.553,842.9
553.688,841.3
553.823,841.5
553.959,841.5
554.094,840.7
554.229,841.5
554.364,841.5
554.499,843.3
554.634,844.8
554.769,844.6
554.905,846.1
555.04,844.6
555.175,845.5
555.31,847.3
555.445,849.4
555.58,854.8
555.715,863.4
555.85,883.0
555.985,950.3
556.121,1036.6
556.256,974.4
556.391,900.2
556.526,877.1
556.661,876.6
556.796,887.7
556.931,903.9
557.066,933.0
557.201,926.3
557.336,891.5
557.471,870.5
557.606,860.7
557.741,857.3
557.876,855.2
558.011,852.2
558.146,853.4
558.281,849.8
558.416,849.9
558.551,849.0
558.685,851.0
558.82,856.0
558.955,860.7
559.09,856.0
559.225,849.7
559.36,847.0
559.495,846.9
559.63,846.9
559.765,850.9
559.9,849.8
560.034,855.9
560.169,870.2
560.304,871.3
560.439,861.2
560.574,855.0
560.709,857.2
560.843,857.6
560.978,869.1
561.113,904.6
561.248,946.3
561.383,919.5
561.517,873.1
561.652,859.3
561.787,860.3
561.922,868.5
562.057,879.4
562.191,867.5
562.326,860.1
562.461,856.2
562.596,855.7
562.73,855.5
562.865,857.0
563.0,865.8
563.134,875.1
563.269,882.8
563.404,882.8
563.539,877.0
563.673,864.4
563.808,856.5
563.943,854.5
564.077,855.3
564.212,852.5
564.346,855.1
564.481,853.6
564.616,853.1
564.75,853.0
564.885,853.0
565.02,854.0
565.154,855.9
565.289,860.3
565.423,860.1
565.558,858.8
565.693,856.3
565.827,854.3
565.962,855.2
566.096,856.8
566.231,854.8
566.365,859.7
566.5,861.5
566.634,873.8
566.769,897.6
566.903,927.9
567.038,940.7
567.172,930.5
567.307,934.9
567.441,965.6
567.576,942.9
567.71,894.3
567.845,869.6
567.979,861.1
568.114,858.2
568.248,858.5
568.383,859.0
568.517,862.9
568.652,865.0
568.786,868.6
568.92,879.0
569.055,896.7
569.189,899.3
569.324,880.5
569.458,868.7
569.592,864.1
569.727,861.8
569.861,863.9
569.996,865.0
570.13,872.6
570.264,880.8
570.399,876.8
570.533,867.2
570.667,863.0
570.802,861.5
570.936,862.7
571.07,863.0
571.205,867.0
571.339,867.0
571.473,874.6
571.607,877.2
571.742,880.3
571.876,883.7
572.01,882.4
572.144,878.4
572.279,883.2
572.413,899.3
572.547,931.1
572.681,978.7
572.816,971.2
572.95,920.9
573.084,895.2
573.218,883.8
573.353,883.5
573.487,896.8
573.621,915.1
573.755,925.9
573.889,905.2
574.023,894.0
574.158,893.8
574.292,890.9
574.426,882.1
574.56,874.6
574.694,873.7
574.828,872.0
574.963,871.1
575.097,871.0
575.231,871.4
575.365,872.5
575.499,876.4
575.633,874.7
575.767,875.6
575.901,883.4
576.035,895.7
576.169,931.6
576.303,938.3
576.438,930.2
576.572,936.9
576.706,964.4
576.84,1002.9
576.974,1041.8
577.108,1033.7
577.242,976.8
577.376,931.9
577.51,904.6
577.644,896.1
577.778,892.1
577.912,888.4
578.046,889.7
578.18,887.5
578.314,888.0
578.448,886.0
578.582,885.7
578.716,888.1
578.85,886.2
578.984,886.0
579.117,887.6
579.251,887.2
579.385,885.0
579.519,884.7
579.653,886.8
579.787,885.9
579.921,889.7
580.055,885.3
580.189,882.6
580.323,888.4
580.456,882.8
580.59,885.1
580.724,883.8
580.858,881.8
580.992,885.9
581.126,882.7
581.26,883.6
581.393,883.6
581.527,884.7
581.661,881.5
581.795,885.7
581.929,883.3
582.063,879.7
582.196,879.6
582.33,883.6
582.464,882.8
582.598,882.4
582.731,879.3
582.865,883.3
582.999,878.7
583.133,879.5
583.267,880.7
583.4,879.0
583.534,879.0
583.668,875.7
583.801,878.2
583.935,876.9
584.069,878.3
584.203,878.7
584.336,876.4
584.47,875.1
584.604,876.6
584.737,876.1
584.871,873.8
585.005,875.9
585.138,875.5
585.272,875.0
585.406,876.1
585.539,872.1
585.673,870.0
585.807,873.1
585.94,871.0
586.074,872.2
586.208,870.5
586.341,874.0
586.475,868.0
586.608,869.6
586.742,868.5
586.876,870.7
587.009,871.6
587.143,870.4
587.276,865.3
587.41,868.2
587.543,868.4
587.677,869.0
587.811,865.6
587.944,866.0
588.078,867.4
588.211,868.0
588.345,867.0
588.478,865.8
588.612,865.7
588.745,866.2
588.879,863.7
589.012,866.2
589.146,864.2
589.279,862.9
589.413,863.5
589.546,861.3
589.68,862.4
589.813,863.2
589.947,862.9
590.08,863.5
590.214,861.5
590.347,862.9
590.48,862.0
590.614,863.8
590.747,862.1
590.881,859.5
591.014,861.0
591.148,860.2
591.281,859.4
591.414,861.5
591.548,861.9
591.681,859.4
591.815,859.4
591.948,860.2
592.081,860.1
592.215,860.1
592.348,861.6
592.481,858.6
592.615,861.0
592.748,861.3
592.881,863.0
593.015,858.3
593.148,857.2
593.281,860.3
593.415,860.1
593.548,856.9
593.681,858.8
593.815,858.0
593.948,856.6
594.081,861.0
594.215,859.5
594.348,858.1
594.481,858.7
594.614,857.4
594.748,857.9
594.881,858.2
595.014,855.6
595.147,858.5
595.281,856.1
595.414,855.3
595.547,859.0
595.68,857.4
595.814,858.1
595.947,860.2
596.08,854.2
596.213,857.7
596.347,857.2
596.48,858.1
596.613,859.3
596.746,855.3
596.879,858.2
597.012,855.2
597.146,856.0
597.279,857.3
597.412,857.2
597.545,857.7
597.678,859.2
597.811,857.1
597.945,857.5
598.078,857.1
598.211,857.4
598.344,854.9
598.477,857.2
598.61,858.0
598.743,861.5
598.876,857.8
599.009,859.0
599.143,859.8
599.276,857.7
599.409,860.1
599.542,858.1
599.675,857.0
599.808,856.5
599.941,858.4
600.074,858.7
600.207,857.6
600.34,858.2
600.473,856.1
600.606,855.9
600.739,856.4
600.872,855.3
601.005,856.8
601.138,856.6
601.271,858.4
601.404,856.5
601.537,857.5
601.67,855.8
601.803,856.1
601.936,856.7
602.069,854.8
602.202,853.4
602.335,856.3
602.468,857.4
602.601,855.8
602.734,852.6
602.867,855.1
603.0,854.2
603.133,853.8
603.266,855.4
603.399,855.9
603.532,856.1
603.665,855.5
603.798,853.8
603.931,856.2
604.064,855.1
604.196,855.6
604.329,857.6
604.462,856.5
604.595,854.2
604.728,855.5
604.861,856.8
604.994,854.8
605.127,855.1
605.259,854.6
605.392,853.4
605.525,854.6
605.658,854.6
605.791,853.5
605.924,852.8
606.057,855.0
606.189,852.7
606.322,854.9
606.455,853.7
606.588,855.2
606.721,851.9
606.853,855.7
606.986,853.1
607.119,853.9
607.252,853.3
607.385,855.1
607.517,853.8
607.65,854.0
607.783,855.2
607.916,853.9
608.049,852.2
608.181,853.4
608.314,852.9
608.447,853.3
608.58,851.6
608.712,852.9
608.845,854.2
608.978,853.7
609.111,854.5
609.243,854.4
609.376,853.1
609.509,853.8
609.641,852.9
609.774,850.4
609.907,853.2
610.039,851.4
610.172,852.8
610.305,851.6
610.438,852.3
610.57,853.5
610.703,853.6
610.836,852.0
610.968,853.0
611.101,852.4
611.234,854.1
611.366,853.6
611.499,853.7
611.631,852.4
611.764,853.2
611.897,853.6
612.029,853.4
612.162,852.2
612.295,852.0
612.427,853.2
612.56,855.1
612.692,851.7
612.825,853.3
612.958,853.8
613.09,853.7
613.223,851.5
613.355,852.3
613.488,852.4
613.621,852.1
613.753,854.9
613.886,853.1
614.018,852.6
614.151,853.5
614.283,853.1
614.416,854.0
614.548,853.4
614.681,854.8
614.814,853.8
614.946,854.0
615.079,854.6
615.211,856.4
615.344,856.1
615.476,854.1
615.609,853.7
615.741,855.2
615.874,853.5
616.006,853.0
616.139,853.2
616.271,855.8
616.404,854.6
616.536,857.3
616.669,856.9
616.801,858.8
616.933,857.4
617.066,859.5
617.198,860.0
617.331,857.2
617.463,860.3
617.596,859.3
617.728,857.2
617.861,859.5
617.993,861.8
618.125,857.4
618.258,859.0
618.39,856.7
618.523,857.7
618.655,861.0
618.788,858.9
618.92,860.2
619.052,862.9
619.185,860.1
619.317,864.3
619.45,867.6
619.582,867.6
619.714,869.0
619.847,869.9
619.979,868.1
620.111,870.7
620.244,867.7
620.376,869.0
620.509,868.4
620.641,867.3
620.773,867.4
620.906,868.1
621.038,866.4
621.17,869.8
621.303,871.4
621.435,873.4
621.567,876.6
621.7,879.7
621.832,886.0
621.964,892.7
622.096,899.3
622.229,910.0
622.361,922.5
622.493,918.5
622.626,907.6
622.758,897.8
622.89,890.5
623.022,887.0
623.155,881.3
623.287,881.5
623.419,877.5
623.552,878.6
623.684,877.2
623.816,872.3
623.948,869.2
624.081,870.2
624.213,869.0
624.345,866.6
624.477,867.9
624.61,870.4
624.742,867.8
624.874,872.0
625.006,872.2
625.138,869.9
625.271,872.3
625.403,876.1
625.535,876.5
625.667,879.7
625.799,886.4
625.932,884.3
626.064,889.1
626.196,896.5
626.328,904.3
626.46,929.0
626.593,966.3
626.725,1053.9
626.857,1154.1
626.989,1192.8
627.121,1149.6
627.253,1069.3
627.386,1019.3
627.518,995.6
627.65,1013.7
627.782,1101.6
627.914,1247.5
628.046,1368.1
628.178,1380.5
628.311,1395.8
628.443,1455.8
628.575,1547.3
628.707,1580.9
628.839,1542.1
628.971,1463.9
629.103,1387.3
629.235,1352.1
629.367,1363.6
629.5,1389.0
629.632,1374.1
629.764,1310.5
629.896,1260.5
630.028,1236.1
630.16,1257.6
630.292,1257.9
630.424,1243.5
630.556,1180.0
630.688,1110.8
630.82,1065.7
630.952,1048.3
631.084,1075.5
631.216,1153.6
631.349,1249.0
631.481,1294.7
631.613,1316.1
631.745,1337.8
631.877,1319.2
632.009,1254.8
632.141,1157.0
632.273,1069.7
632.405,1006.1
632.537,962.3
632.669,930.7
632.801,913.1
632.933,902.6
633.065,893.3
633.197,891.1
633.329,880.3
633.461,879.2
633.593,878.0
633.725,874.6
633.857,870.0
633.989,871.6
634.121,869.2
634.253,866.2
634.385,864.7
634.517,864.9
634.649,862.4
634.781,863.4
634.912,863.8
635.044,863.4
635.176,861.2
635.308,861.1
635.44,860.0
635.572,861.8
635.704,858.0
635.836,860.2
635.968,861.8
636.1,858.4
636.232,857.4
636.364,860.7
636.496,859.3
636.628,858.8
636.76,859.6
636.891,856.7
637.023,859.4
637.155,856.1
637.287,856.1
637.419,856.1
637.551,857.4
637.683,855.5
637.815,856.1
637.947,855.2
638.078,856.2
638.21,855.7
638.342,857.4
638.474,855.4
638.606,856.4
638.738,854.6
638.87,857.7
639.002,858.3
639.133,859.0
639.265,856.5
639.397,858.2
639.529,854.3
639.661,856.6
639.793,857.3
639.924,854.9
640.056,854.9
640.188,855.1
640.32,855.9
640.452,858.4
640.584,855.9
640.715,856.4
640.847,852.7
640.979,855.1
641.111,854.8
641.243,856.6
641.374,854.9
641.506,856.8
641.638,855.7
641.77,854.7
641.902,854.4
642.033,852.7
642.165,855.1
642.297,853.4
642.429,853.2
642.561,852.6
642.692,850.4
642.824,850.9
642.956,848.8
643.088,849.8
643.219,851.5
643.351,849.0
643.483,849.7
643.615,848.7
643.746,848.3
643.878,849.6
644.01,847.3
644.142,849.4
644.273,847.1
644.405,845.7
644.537,850.1
644.669,847.9
644.8,849.9
644.932,849.6
645.064,850.3
645.195,846.4
645.327,850.0
645.459,845.1
645.591,848.7
645.722,846.9
645.854,847.7
645.986,846.6
646.117,846.8
646.249,847.2
646.381,845.3
646.512,846.7
646.644,847.2
646.776,847.4
646.908,845.2
647.039,844.5
647.171,847.1
647.303,845.7
647.434,847.4
647.566,846.8
647.698,847.1
647.829,845.1
647.961,847.5
648.093,847.0
648.224,843.5
648.356,846.3
648.488,844.5
648.619,845.1
648.751,847.0
648.883,845.7
649.014,844.6
649.146,845.9
649.277,847.0
649.409,845.8
649.541,845.9
649.672,844.9
649.804,845.1
649.936,844.7
650.067,843.6
650.199,846.0
650.33,845.0
650.462,844.9
650.594,846.6
650.725,844.2
650.857,844.8
650.988,844.6
651.12,845.3
651.252,844.1
651.383,845.1
651.515,844.3
651.646,845.7
651.778,844.4
651.91,844.9
652.041,843.1
652.173,844.6
652.304,844.4
652.436,847.4
652.568,844.1
652.699,843.5
652.831,841.0
652.962,843.1
653.094,843.5
653.225,843.4
653.357,843.0
653.489,842.7
653.62,845.4
653.752,843.7
653.883,840.6
654.015,844.3
654.146,844.1
654.278,840.7
654.409,841.3
654.541,842.8
654.672,844.1
654.804,841.1
654.935,842.1
655.067,843.7
655.199,842.0
655.33,843.1
655.462,842.4
655.593,843.3
655.725,841.0
655.856,842.5
655.988,842.0
656.119,843.3
656.251,842.3
656.382,841.6
656.514,841.9
656.645,843.5
656.777,843.8
656.908,843.0
657.04,843.5
657.171,842.4
657.303,840.3
657.434,841.3
657.566,842.9
657.697,841.4
657.829,843.2
657.96,840.4
658.092,839.9
658.223,840.4
658.355,841.4
658.486,841.9
658.617,842.7
658.749,840.3
658.88,842.0
659.012,842.5
659.143,842.2
659.275,842.7
659.406,841.0
659.538,841.3
659.669,840.6
659.801,840.8
659.932,843.7
660.064,841.4
660.195,841.4
660.326,842.1
660.458,842.6
660.589,839.4
660.721,841.4
660.852,843.7
660.984,841.4
661.115,841.2
661.246,841.3
661.378,843.2
661.509,841.5
661.641,841.0
661.772,839.6
661.904,840.6
662.035,840.7
662.166,841.8
662.298,841.6
662.429,840.2
662.561,841.0
662.692,839.9
662.823,840.7
662.955,842.0
663.086,839.4
