nm,Intensity
528.65,1842.43
528.734,1841.38
528.819,1843.07
528.903,1843.63
528.987,1842.82
529.071,1842.57
529.155,1841.95
529.239,1843.2
529.324,1843.32
529.408,1843.13
529.492,1842.4
529.576,1842.85
529.66,1842.8
529.745,1842.6
529.829,1842.3
529.913,1844.57
529.997,1843.2
530.081,1843.2
530.165,1843.43
530.25,1843.47
530.334,1843.28
530.418,1843.72
530.502,1843.95
530.586,1843.3
530.67,1843.1
530.754,1843.38
530.839,1844.8
530.923,1844.15
531.007,1843.72
531.091,1845.5
531.175,1844.15
531.259,1846.13
531.344,1845.3
531.428,1846.78
531.512,1848.13
531.596,1850.3
531.68,1860.35
531.764,1900.35
531.848,2085.73
531.933,2599.25
532.017,3060.5
532.101,3231.25
532.185,2991.77
532.269,2399.15
532.353,1936.13
532.437,1853.8
532.521,1846.65
532.606,1846.93
532.69,1847.63
532.774,1847.65
532.858,1847.2
532.942,1847.65
533.026,1850.6
533.11,1853.07
533.194,1854.15
533.279,1859.53
533.363,1872.47
533.447,1915.68
533.531,2051.2
533.615,2422.18
533.699,3137.25
533.783,4077.52
533.867,5005.42
533.951,5736.58
534.036,6135.17
534.12,6248.33
534.204,6169.15
534.288,6099.33
534.372,5926.9
534.456,5698.27
534.54,5561.55
534.624,5507.63
534.708,5457.73
534.792,5274.67
534.877,5134.25
534.961,5037.35
535.045,4973.0
535.129,4930.48
535.213,4855.83
535.297,4732.55
535.381,4653.65
535.465,4612.45
535.549,4516.35
535.633,4383.38
535.717,4216.4
535.801,4105.67
535.886,4021.48
535.97,3944.8
536.054,3909.23
536.138,3885.2
536.222,3844.13
536.306,3802.48
536.39,3782.5
536.474,3783.2
536.558,3736.77
536.642,3685.63
536.726,3680.32
536.81,3698.38
536.894,3683.25
536.978,3691.35
537.062,3642.32
537.146,3653.63
537.231,3672.13
537.315,3691.02
537.399,3648.13
537.483,3623.57
537.567,3632.63
537.651,3653.1
537.735,3662.73
537.819,3672.88
537.903,3658.07
537.987,3638.55
538.071,3638.57
538.155,3636.7
538.239,3621.4
538.323,3646.7
538.407,3613.65
538.491,3611.45
538.575,3624.77
538.659,3631.57
538.743,3652.0
538.827,3630.93
538.911,3636.3
538.995,3657.8
539.079,3702.88
539.163,3711.93
539.247,3687.8
539.331,3714.7
539.415,3724.1
539.499,3764.93
539.583,3822.6
539.667,3826.18
539.751,3840.93
539.835,3856.1
539.919,3881.23
540.003,3894.0
540.087,3895.7
540.171,3848.25
540.255,3804.88
540.339,3777.88
540.423,3770.73
540.507,3755.15
540.591,3733.55
540.675,3722.4
540.759,3725.55
540.843,3736.4
540.927,3745.02
541.011,3696.38
541.095,3677.38
541.179,3695.52
541.263,3718.88
541.347,3725.75
541.431,3718.73
541.515,3697.1
541.599,3723.05
541.683,3695.3
541.767,3737.68
541.851,3767.85
541.935,3763.55
542.019,3756.52
542.103,3797.9
542.187,3768.38
542.271,3767.05
542.355,3779.9
542.439,3809.57
542.523,3800.2
542.607,3796.07
542.691,3780.85
542.775,3793.93
542.859,3826.25
542.943,3854.73
543.027,3864.35
543.111,3869.05
543.195,3819.68
543.279,3830.38
543.363,3824.85
543.446,3841.95
543.53,3846.1
543.614,3843.32
543.698,3884.57
543.782,3918.48
543.866,3917.3
543.95,3891.48
544.034,3894.1
544.118,3913.57
544.202,3880.0
544.286,3873.32
544.37,3882.32
544.454,3912.18
544.538,3934.48
544.622,3906.8
544.706,3916.95
544.789,3934.27
544.873,3956.68
544.957,3968.63
545.041,3941.07
545.125,3904.35
545.209,3938.73
545.293,4000.15
545.377,3982.3
545.461,3985.13
545.545,3984.98
545.629,3975.68
545.713,4006.27
545.796,3992.82
545.88,3971.7
545.964,3984.9
546.048,3953.38
546.132,3960.02
546.216,4004.93
546.3,4027.27
546.384,4032.32
546.468,4079.23
546.552,4078.0
546.635,4036.8
546.719,4039.1
546.803,4050.13
546.887,4066.45
546.971,4042.32
547.055,4053.1
547.139,4048.77
547.223,4056.88
547.306,4077.6
547.39,4105.02
547.474,4093.95
547.558,4099.33
547.642,4082.4
547.726,4085.0
547.81,4086.27
547.894,4108.95
547.977,4108.75
548.061,4126.0
548.145,4137.2
548.229,4180.83
548.313,4231.4
548.397,4255.45
548.481,4186.27
548.564,4168.7
548.648,4214.38
548.732,4234.0
548.816,4236.52
548.9,4241.83
548.984,4244.42
549.068,4199.48
549.151,4205.6
549.235,4216.58
549.319,4227.85
549.403,4226.77
549.487,4176.02
549.571,4178.15
549.655,4194.7
549.738,4195.45
549.822,4192.02
549.906,4192.58
549.99,4234.9
550.074,4283.6
550.158,4266.67
550.241,4311.35
550.325,4422.15
550.409,4592.85
550.493,4843.33
550.577,5111.58
550.66,5243.42
550.744,5134.58
550.828,4794.6
550.912,4512.35
550.996,4436.77
551.08,4429.35
551.163,4383.42
551.247,4383.63
551.331,4395.3
551.415,4380.02
551.499,4374.0
551.582,4388.52
551.666,4430.17
551.75,4435.77
551.834,4388.7
551.918,4385.02
552.001,4397.63
552.085,4387.73
552.169,4411.25
552.253,4446.17
552.337,4450.7
552.42,4455.58
552.504,4498.2
552.588,4576.6
552.672,4668.75
552.755,4718.75
552.839,4705.08
552.923,4687.73
553.007,4618.7
553.091,4525.38
553.174,4476.25
553.258,4478.15
553.342,4478.75
553.426,4478.75
553.509,4521.5
553.593,4545.02
553.677,4519.98
553.761,4568.3
553.844,4559.88
553.928,4517.1
554.012,4484.65
554.096,4579.58
554.179,4572.95
554.263,4514.85
554.347,4517.13
554.431,4515.98
554.514,4556.13
554.598,4602.4
554.682,4606.33
554.766,4619.4
554.849,4638.2
554.933,4635.95
555.017,4674.92
555.101,4711.63
555.184,4707.35
555.268,4720.88
555.352,4785.9
555.436,4842.08
555.519,4942.08
555.603,4984.9
555.687,4957.88
555.771,4948.48
555.854,4983.9
555.938,5007.98
556.022,4925.48
556.105,4975.17
556.189,4981.35
556.273,4951.6
556.357,4971.05
556.44,4964.17
556.524,4961.23
556.608,5050.42
556.691,5047.98
556.775,5074.85
556.859,5134.5
556.943,5149.3
557.026,5181.0
557.11,5249.75
557.194,5446.9
557.277,5718.77
557.361,6004.63
557.445,6279.58
557.528,6464.5
557.612,6581.25
557.696,6386.35
557.779,6005.1
557.863,5641.9
557.947,5453.23
558.031,5432.65
558.114,5287.02
558.198,5178.2
558.282,5203.13
558.365,5280.6
558.449,5243.67
558.533,5148.4
558.616,5130.02
558.7,5140.05
558.784,5104.88
558.867,5097.7
558.951,5085.42
559.035,5057.6
559.118,4987.52
559.202,4963.17
559.286,5002.17
559.369,4992.75
559.453,4943.13
559.537,4926.25
559.62,4930.9
559.704,4929.8
559.788,4930.25
559.871,4960.67
559.955,5004.3
560.038,5052.6
560.122,5019.15
560.206,5004.65
560.289,4992.27
560.373,4981.88
560.457,5005.15
560.54,5008.9
560.624,5019.17
560.708,5034.2
560.791,5096.0
560.875,5136.6
560.958,5126.58
561.042,5095.52
561.126,5142.1
561.209,5177.58
561.293,5208.88
561.377,5216.33
561.46,5225.95
561.544,5205.02
561.627,5275.3
561.711,5342.02
561.795,5384.17
561.878,5398.58
561.962,5482.98
562.045,5536.83
562.129,5550.2
562.213,5528.85
562.296,5433.4
562.38,5319.83
562.463,5294.35
562.547,5357.3
562.631,5376.1
562.714,5322.75
562.798,5311.23
562.881,5349.38
562.965,5344.83
563.049,5330.33
563.132,5321.45
563.216,5298.73
563.299,5335.45
563.383,5319.15
563.467,5273.25
563.55,5332.17
563.634,5343.13
563.717,5285.95
563.801,5301.3
563.884,5344.08
563.968,5430.45
564.052,5436.5
564.135,5465.9
564.219,5501.7
564.302,5508.13
564.386,5496.48
564.469,5500.92
564.553,5618.73
564.636,5713.9
564.72,5785.58
564.804,5903.77
564.887,6021.02
564.971,6187.58
565.054,6333.98
565.138,6334.3
565.221,6188.13
565.305,6160.17
565.388,6125.02
565.472,6178.63
565.556,6213.73
565.639,6191.7
565.723,6232.73
565.806,6288.13
565.89,6341.95
565.973,6150.6
566.057,6025.15
566.14,5986.58
566.224,5882.63
566.307,5800.0
566.391,5757.73
566.474,5705.7
566.558,5598.45
566.641,5590.65
566.725,5614.08
566.808,5592.33
566.892,5566.92
566.975,5515.45
567.059,5512.48
567.142,5543.02
567.226,5574.9
567.309,5651.88
567.393,5755.9
567.476,5853.88
567.56,5910.13
567.643,5926.58
567.727,6034.55
567.81,6026.75
567.894,5945.1
567.977,5941.63
568.061,5946.77
568.144,5862.48
568.228,5776.8
568.311,5642.15
568.395,5622.38
568.478,5675.55
568.562,5644.3
568.645,5626.15
568.729,5671.42
568.812,5667.95
568.896,5688.3
568.979,5727.85
569.063,5676.4
569.146,5733.0
569.23,5769.33
569.313,5812.92
569.396,5787.08
569.48,5753.65
569.563,5778.17
569.647,5766.23
569.73,5835.98
569.814,5846.23
569.897,5904.65
569.981,5904.6
570.064,5961.5
570.148,5969.58
570.231,6051.95
570.314,6141.83
570.398,6236.3
570.481,6358.95
570.565,6489.13
570.648,6555.63
570.732,6772.42
570.815,7048.6
570.898,7233.3
570.982,7486.8
571.065,7783.1
571.149,7974.23
571.232,8154.75
571.316,8252.42
571.399,8245.33
571.482,8126.9
571.566,7828.95
571.649,7540.45
571.733,7210.58
571.816,7050.3
571.9,6979.15
571.983,6856.52
572.066,6775.77
572.15,6629.7
572.233,6437.23
572.317,6276.02
572.4,6204.6
572.483,6226.25
572.567,6209.9
572.65,6098.75
572.734,6083.42
572.817,6058.73
572.9,6053.85
572.984,6057.27
573.067,6006.17
573.15,5985.15
573.234,6048.75
573.317,6050.13
573.401,6024.8
573.484,6028.4
573.567,6057.63
573.651,5963.38
573.734,5940.38
573.818,5993.9
573.901,6101.02
573.984,6144.48
574.068,6090.27
574.151,6080.1
574.234,6098.92
574.318,6043.23
574.401,6011.83
574.484,6093.17
574.568,6072.55
574.651,6128.73
574.734,6142.2
574.818,6136.63
574.901,6069.08
574.985,6107.2
575.068,6169.3
575.151,6242.73
575.235,6297.85
575.318,6452.83
575.401,6559.05
575.485,6538.8
575.568,6482.6
575.651,6388.23
575.735,6263.15
575.818,6219.83
575.901,6212.98
575.985,6214.38
576.068,6226.42
576.151,6291.63
576.235,6294.17
576.318,6328.92
576.401,6438.0
576.484,6456.2
576.568,6426.0
576.651,6443.05
576.734,6451.7
576.818,6488.17
576.901,6494.48
576.984,6470.95
577.068,6442.65
577.151,6316.7
577.234,6253.6
577.318,6230.05
577.401,6245.33
577.484,6250.0
577.567,6226.15
577.651,6181.63
577.734,6140.67
577.817,6270.15
577.901,6223.77
577.984,6236.35
578.067,6176.9
578.15,6147.92
578.234,6201.77
578.317,6229.02
578.4,6169.7
578.484,6197.17
578.567,6155.0
578.65,6213.67
578.733,6215.95
578.817,6183.27
578.9,6177.2
578.983,6157.77
579.066,6157.4
579.15,6207.15
579.233,6240.23
579.316,6309.33
579.399,6292.92
579.483,6287.73
579.566,6273.52
579.649,6207.05
579.732,6238.67
579.816,6304.1
579.899,6299.58
579.982,6315.83
580.065,6294.0
580.149,6307.13
580.232,6376.17
580.315,6371.7
580.398,6352.95
580.482,6439.83
580.565,6484.95
580.648,6473.7
580.731,6393.6
580.815,6470.55
580.898,6537.33
580.981,6598.38
581.064,6631.13
581.147,6682.67
581.231,6612.25
581.314,6611.42
581.397,6755.83
581.48,6947.23
581.563,7210.0
581.647,7738.17
581.73,8504.7
581.813,9635.42
581.896,10907.0
581.979,12643.5
582.063,14281.0
582.146,14890.4
582.229,14121.6
582.312,12301.2
582.395,10108.2
582.479,8388.08
582.562,7468.42
582.645,7043.33
582.728,6775.77
582.811,6691.65
582.895,6641.67
582.978,6623.38
583.061,6560.52
583.144,6525.23
583.227,6551.6
583.31,6429.13
583.394,6425.65
583.477,6558.0
583.56,6585.08
583.643,6548.6
583.726,6525.2
583.809,6434.98
583.893,6527.6
583.976,6552.83
584.059,6523.42
584.142,6493.75
584.225,6464.38
584.308,6516.05
584.391,6586.23
584.475,6578.3
584.558,6554.88
584.641,6622.08
584.724,6633.17
584.807,6604.83
584.89,6673.95
584.973,6725.85
585.057,6754.98
585.14,6781.38
585.223,6883.88
585.306,7114.0
585.389,7487.88
585.472,8039.98
585.555,8511.5
585.638,9138.72
585.722,9814.4
585.805,10396.9
585.888,10780.0
585.971,10962.7
586.054,10776.0
586.137,10378.0
586.22,10022.4
586.303,9627.22
586.386,9012.83
586.47,8492.13
586.553,8118.02
586.636,7669.67
586.719,7298.88
586.802,7091.02
586.885,6967.65
586.968,6868.48
587.051,6882.88
587.134,6737.17
587.217,6717.98
587.3,6815.02
587.384,6826.42
587.467,6698.38
587.55,6581.42
587.633,6537.23
587.716,6573.48
587.799,6665.95
587.882,6649.5
587.965,6693.35
588.048,6673.33
588.131,6646.42
588.214,6599.27
588.297,6568.85
588.38,6655.92
588.463,6669.0
588.546,6613.3
588.63,6679.58
588.713,6599.73
588.796,6599.0
588.879,6596.67
588.962,6553.23
589.045,6597.75
589.128,6645.45
589.211,6641.25
589.294,6632.75
589.377,6639.92
589.46,6560.88
589.543,6554.58
589.626,6524.1
589.709,6457.95
589.792,6465.75
589.875,6548.38
589.958,6567.88
590.041,6518.83
590.124,6547.85
590.207,6602.0
590.29,6594.75
590.373,6547.5
590.456,6484.73
590.539,6512.67
590.622,6558.02
590.705,6629.9
590.788,6621.9
590.871,6594.25
590.954,6616.92
591.037,6602.05
591.12,6627.63
591.203,6698.58
591.286,6665.83
591.369,6547.17
591.452,6593.95
591.535,6629.15
591.618,6673.1
591.701,6635.9
591.784,6623.38
591.867,6619.55
591.95,6641.48
592.033,6680.63
592.116,6609.92
592.199,6562.23
592.282,6604.13
592.365,6728.05
592.448,6748.45
592.531,6696.15
592.614,6766.8
592.697,6716.23
592.78,6691.95
592.863,6744.35
592.946,6724.2
593.029,6669.45
593.112,6599.8
593.195,6580.08
593.278,6708.52
593.361,6731.95
593.443,6645.65
593.526,6698.17
593.609,6652.33
593.692,6627.1
593.775,6632.23
593.858,6649.45
593.941,6617.7
594.024,6683.2
594.107,6737.95
594.19,6720.25
594.273,6639.8
594.356,6646.42
594.439,6645.15
594.522,6798.95
594.604,6777.02
594.687,6652.27
594.77,6742.52
594.853,6818.23
594.936,6760.27
595.019,6720.3
595.102,6694.25
595.185,6670.73
595.268,6738.7
595.351,6840.67
595.434,6887.75
595.516,6901.08
595.599,6830.38
595.682,6712.9
595.765,6669.98
595.848,6778.4
595.931,6801.77
596.014,6766.73
596.097,6814.4
596.18,6840.88
596.262,6886.23
596.345,6802.9
596.428,6754.33
596.511,6815.05
596.594,6882.2
596.677,6897.83
596.76,6880.77
596.843,6847.08
596.925,6860.42
597.008,6877.02
597.091,6870.15
597.174,6781.42
597.257,6775.1
597.34,6911.45
597.423,6839.05
597.505,6832.65
597.588,6781.92
597.671,6777.7
597.754,6837.02
597.837,6845.88
597.92,6795.75
598.002,6849.95
598.085,6987.75
598.168,6936.2
598.251,6819.38
598.334,6905.45
598.417,6891.02
598.499,6799.25
598.582,6871.75
598.665,6945.67
598.748,6891.23
598.831,6846.1
598.914,6886.45
598.996,6833.02
599.079,6940.38
599.162,6984.5
599.245,6991.52
599.328,6974.95
599.41,6969.85
599.493,7025.42
599.576,6939.0
599.659,6853.13
599.742,6839.73
599.824,6977.65
599.907,7094.55
599.99,6989.77
600.073,6943.9
600.156,7013.33
600.238,6992.02
600.321,7056.7
600.404,7111.85
600.487,6998.02
600.57,6926.77
600.652,7017.33
600.735,6986.08
600.818,6928.02
600.901,7009.95
600.983,6959.48
601.066,6934.58
601.149,6989.67
601.232,7023.42
601.314,6984.5
601.397,7076.27
601.48,7057.02
601.563,7115.38
601.645,7067.67
601.728,6977.1
601.811,7006.58
601.894,7064.8
601.976,7040.58
602.059,7076.7
602.142,7015.55
602.225,7036.4
602.307,7118.9
602.39,7058.35
602.473,7055.3
602.556,7006.83
602.638,7044.13
602.721,7164.65
602.804,7141.2
602.887,7133.08
602.969,7150.55
603.052,7075.65
603.135,7073.5
603.217,7156.85
603.3,7177.5
603.383,7109.35
603.466,7088.45
603.548,7134.3
603.631,7200.4
603.714,7202.92
603.796,7203.02
603.879,7202.38
603.962,7189.7
604.045,7135.73
604.127,7103.25
604.21,7112.0
604.293,7082.38
604.375,7074.58
604.458,7162.42
604.541,7260.98
604.623,7234.4
604.706,7185.77
604.789,7218.55
604.871,7239.67
604.954,7170.9
605.037,7192.05
605.119,7195.7
605.202,7213.85
605.285,7309.5
605.367,7251.33
605.45,7237.1
605.533,7216.05
605.615,7172.38
605.698,7188.98
605.781,7188.42
605.863,7287.92
605.946,7341.58
606.029,7378.4
606.111,7317.58
606.194,7179.15
606.277,7214.3
606.359,7263.5
606.442,7210.52
606.524,7288.83
606.607,7366.65
606.69,7295.92
606.772,7327.83
606.855,7301.9
606.938,7331.75
607.02,7350.3
607.103,7400.83
607.185,7425.6
607.268,7419.33
607.351,7361.0
607.433,7327.2
607.516,7341.23
607.599,7315.52
607.681,7369.35
607.764,7365.1
607.846,7409.23
607.929,7569.63
608.012,7560.95
608.094,7425.7
608.177,7381.1
608.259,7454.92
608.342,7406.63
608.425,7489.08
608.507,7563.08
608.59,7518.02
608.672,7456.7
608.755,7385.17
608.837,7326.42
608.92,7360.27
609.003,7423.8
609.085,7529.05
609.168,7483.67
609.25,7556.35
609.333,7583.63
609.415,7544.4
609.498,7443.83
609.581,7517.98
609.663,7454.58
609.746,7521.17
609.828,7540.05
609.911,7584.45
609.993,7647.33
610.076,7547.05
610.158,7424.1
610.241,7504.77
610.324,7668.33
610.406,7782.98
610.489,7810.27
610.571,7696.33
610.654,7642.95
610.736,7658.77
610.819,7714.3
610.901,7770.75
610.984,7655.92
611.066,7561.7
611.149,7670.9
611.231,7773.45
611.314,7581.83
611.396,7625.73
611.479,7745.17
611.561,7749.52
611.644,7757.23
611.727,7736.5
611.809,7705.77
611.892,7706.45
611.974,7651.42
612.057,7726.27
612.139,7813.83
612.222,7790.98
612.304,7894.1
612.386,7933.15
612.469,7765.77
612.551,7684.15
612.634,7819.83
612.716,7899.52
612.799,7743.17
612.881,7740.55
612.964,7790.08
613.046,7819.8
613.129,7937.35
613.211,8004.05
613.294,7929.8
613.376,7855.77
613.459,7804.0
613.541,7778.1
613.624,7844.7
613.706,7970.0
613.789,7990.42
613.871,7971.5
613.953,7972.02
614.036,7990.63
614.118,8023.27
614.201,7963.45
614.283,8107.0
614.366,8169.7
614.448,8041.2
614.531,8051.42
614.613,8040.17
614.695,8100.17
614.778,8019.13
614.86,8037.98
614.943,8113.8
615.025,8082.45
615.108,8123.8
615.19,8048.9
615.272,8002.35
615.355,8060.42
615.437,8289.67
615.52,8219.7
615.602,8104.15
615.684,7966.77
615.767,8032.33
615.849,8139.38
615.932,8277.63
616.014,8304.7
616.097,8307.65
616.179,8269.3
616.261,8242.97
616.344,8167.77
616.426,8213.83
616.508,8275.5
616.591,8284.1
616.673,8268.25
616.756,8299.1
616.838,8297.72
616.92,8279.38
617.003,8325.8
617.085,8247.55
617.168,8319.1
617.25,8379.1
617.332,8349.38
617.415,8386.72
617.497,8471.67
617.579,8416.58
617.662,8355.58
617.744,8448.58
617.826,8500.3
617.909,8486.6
617.991,8407.65
618.073,8434.0
618.156,8571.65
618.238,8537.03
618.32,8625.45
618.403,8686.35
618.485,8611.15
618.567,8473.4
618.65,8446.5
618.732,8557.05
618.814,8666.47
618.897,8571.67
618.979,8484.75
619.061,8530.85
619.144,8816.72
619.226,8788.4
619.308,8673.75
619.391,8589.08
619.473,8602.83
619.555,8730.53
619.638,8698.63
619.72,8649.42
619.802,8567.47
619.885,8669.5
619.967,8632.85
620.049,8685.25
620.131,8742.1
620.214,8726.13
620.296,8725.7
620.378,8687.47
620.461,8712.65
620.543,8769.0
620.625,8847.75
620.707,8783.88
620.79,8743.35
620.872,8780.83
620.954,8838.13
621.037,8802.72
621.119,8831.65
621.201,8864.33
621.283,8949.72
621.366,8868.47
621.448,8828.2
621.53,8720.75
621.612,8814.0
621.695,8905.47
621.777,8999.58
621.859,8990.28
621.941,8788.55
622.024,8812.78
622.106,8914.63
622.188,8867.9
622.27,8847.0
622.353,8956.88
622.435,8923.42
622.517,8869.38
622.599,8974.25
622.682,9002.92
622.764,9103.83
622.846,9047.8
622.928,8948.05
623.01,9107.95
623.093,9143.42
623.175,9132.33
623.257,9056.83
623.339,9170.0
623.422,9212.9
623.504,9169.97
623.586,9113.15
623.668,9107.38
623.75,9161.7
623.833,9241.7
623.915,9338.1
623.997,9298.42
624.079,9226.13
624.161,9128.85
624.244,8998.6
624.326,9097.25
624.408,9333.67
624.49,9424.85
624.572,9290.28
624.654,9267.03
624.737,9362.17
624.819,9471.72
624.901,9337.55
624.983,9355.6
625.065,9381.97
625.147,9286.25
625.23,9365.55
625.312,9291.9
625.394,9331.92
625.476,9381.55
625.558,9381.3
625.64,9586.45
625.723,9463.53
625.805,9279.85
625.887,9158.55
625.969,9277.6
626.051,9418.05
626.133,9541.65
626.215,9526.2
626.298,9500.88
626.38,9440.15
626.462,9552.53
626.544,9466.42
626.626,9389.13
626.708,9409.03
626.79,9495.5
626.872,9400.33
626.955,9428.7
627.037,9566.67
627.119,9564.92
627.201,9591.0
627.283,9481.5
627.365,9506.97
627.447,9580.03
627.529,9462.85
627.611,9632.22
627.693,9755.35
627.776,9880.0
627.858,9741.08
627.94,9576.15
628.022,9677.8
628.104,9777.3
628.186,9787.13
628.268,9606.5
628.35,9528.95
628.432,9777.7
628.514,9969.72
628.596,9992.63
628.678,9870.17
628.761,9841.45
628.843,9840.9
628.925,9790.9
629.007,9737.6
629.089,9856.35
629.171,10042.7
629.253,10154.1
629.335,10157.3
629.417,10017.2
629.499,10045.5
629.581,10074.7
629.663,10042.5
629.745,10089.2
629.827,9939.25
629.909,9945.7
629.991,9916.85
630.073,9978.6
630.155,10116.4
630.237,10124.5
630.319,10026.9
630.401,10116.0
630.483,10100.8
630.565,9983.13
630.647,10165.9
630.73,9990.97
630.812,10025.9
630.894,10257.8
630.976,10354.3
631.058,10294.2
631.14,10403.8
631.222,10491.5
631.304,10680.8
631.386,10704.0
631.468,10672.3
631.55,10706.0
631.632,10820.2
631.714,11018.3
631.796,11115.0
631.877,10791.7
631.959,10536.3
632.041,10601.7
632.123,10787.3
632.205,10927.0
632.287,10942.3
632.369,10954.9
632.451,10832.0
632.533,10776.9
632.615,10628.3
632.697,10792.0
632.779,10698.9
632.861,10536.2
632.943,10420.0
633.025,10527.7
633.107,10701.8
633.189,10829.3
633.271,10861.0
633.353,10558.6
633.435,10365.5
633.517,10520.8
633.599,10452.0
633.681,10572.3
633.763,10996.5
633.844,10734.3
633.926,10298.3
634.008,10375.2
634.09,10521.3
634.172,10533.4
634.254,10507.0
634.336,10387.6
634.418,10428.3
634.5,10442.6
634.582,10315.7
634.664,10348.7
