nm,Intensity
526.549,828.54
526.686,828.56
526.823,828.04
526.96,829.24
527.096,828.6
527.233,828.92
527.37,828.46
527.507,828.48
527.643,828.26
527.78,828.54
527.917,828.86
528.053,828.48
528.19,829.0
528.327,829.1
528.463,828.54
528.6,829.04
528.737,829.04
528.873,828.28
529.01,828.4
529.146,829.14
529.283,829.36
529.42,828.22
529.556,828.36
529.693,828.6
529.829,828.64
529.966,828.5
530.102,828.72
530.239,828.32
530.375,828.9
530.512,828.58
530.648,828.28
530.785,828.96
530.921,828.64
531.058,828.36
531.194,828.52
531.331,829.02
531.467,828.32
531.604,828.68
531.74,828.9
531.877,828.74
532.013,831.34
532.149,849.14
532.286,855.58
532.422,834.98
532.559,828.52
532.695,828.72
532.831,828.12
532.968,828.84
533.104,828.6
533.24,829.1
533.377,828.4
533.513,828.66
533.649,829.3
533.786,833.62
533.922,855.64
534.058,892.36
534.194,911.46
534.331,914.84
534.467,913.5
534.603,915.04
534.739,916.4
534.876,917.24
535.012,916.6
535.148,913.68
535.284,915.42
535.42,915.1
535.557,917.92
535.693,919.74
535.829,921.66
535.965,919.52
536.101,920.08
536.237,922.82
536.374,924.08
536.51,924.94
536.646,921.0
536.782,919.6
536.918,921.22
537.054,922.1
537.19,920.98
537.326,923.46
537.462,921.88
537.598,923.46
537.734,925.4
537.87,925.44
538.007,924.76
538.143,925.82
538.279,924.96
538.415,925.7
538.551,926.2
538.687,926.72
538.823,928.02
538.959,927.1
539.094,928.58
539.23,928.38
539.366,928.62
539.502,928.12
539.638,928.98
539.774,930.36
539.91,931.32
540.046,929.74
540.182,929.7
540.318,929.94
540.454,932.56
540.59,931.66
540.725,931.22
540.861,932.5
540.997,932.56
541.133,932.42
541.269,934.0
541.405,934.6
541.54,934.46
541.676,935.3
541.812,935.82
541.948,938.36
542.084,935.08
542.219,936.44
542.355,936.58
542.491,936.7
542.627,936.48
542.762,939.62
542.898,938.1
543.034,938.3
543.17,939.86
543.305,941.98
543.441,940.24
543.577,940.46
543.712,939.42
543.848,943.96
543.984,941.16
544.119,942.58
544.255,942.54
544.391,944.08
544.526,945.98
544.662,944.3
544.798,945.24
544.933,946.42
545.069,946.78
545.204,947.56
545.34,947.24
545.476,948.04
545.611,946.8
545.747,948.96
545.882,948.86
546.018,951.34
546.153,949.9
546.289,951.1
546.425,950.94
546.56,949.46
546.696,952.46
546.831,953.08
546.967,952.12
547.102,952.58
547.238,954.26
547.373,953.12
547.509,954.32
547.644,954.78
547.779,953.76
547.915,953.4
548.05,954.62
548.186,955.98
548.321,956.04
548.457,956.78
548.592,956.28
548.727,956.64
548.863,957.86
548.998,958.34
549.134,958.56
549.269,956.64
549.404,959.82
549.54,959.58
549.675,960.64
549.81,961.26
549.946,959.3
550.081,959.46
550.216,960.58
550.352,960.6
550.487,959.82
550.622,961.14
550.758,960.98
550.893,963.68
551.028,963.76
551.163,964.6
551.299,963.62
551.434,965.06
551.569,964.2
551.704,964.4
551.84,966.64
551.975,966.38
552.11,967.7
552.245,966.12
552.38,965.42
552.516,967.26
552.651,964.8
552.786,965.72
552.921,965.6
553.056,968.52
553.191,967.96
553.327,967.24
553.462,968.86
553.597,970.4
553.732,969.84
553.867,971.36
554.002,971.14
554.137,971.4
554.272,973.3
554.408,970.06
554.543,973.14
554.678,972.86
554.813,970.76
554.948,971.52
555.083,973.16
555.218,973.7
555.353,971.82
555.488,974.22
555.623,973.84
555.758,971.86
555.893,974.34
556.028,973.44
556.163,974.12
556.298,973.74
556.433,976.14
556.568,975.0
556.703,976.16
556.838,977.9
556.973,977.94
557.108,978.44
557.243,977.78
557.378,977.96
557.513,979.02
557.648,975.98
557.783,977.98
557.917,979.0
558.052,980.54
558.187,978.62
558.322,981.3
558.457,977.26
558.592,978.4
558.727,979.12
558.862,978.32
558.996,977.98
559.131,978.88
559.266,982.22
559.401,978.82
559.536,981.44
559.671,981.22
559.805,980.24
559.94,983.82
560.075,983.68
560.21,984.18
560.345,984.58
560.479,985.92
560.614,986.58
560.749,986.26
560.884,983.84
561.018,985.6
561.153,984.94
561.288,985.08
561.423,985.7
561.557,987.0
561.692,987.94
561.827,985.36
561.962,986.34
562.096,986.92
562.231,987.14
562.366,987.54
562.5,988.66
562.635,990.96
562.77,990.2
562.904,993.56
563.039,990.68
563.174,994.04
563.308,991.82
563.443,991.16
563.577,994.52
563.712,994.46
563.847,994.12
563.981,998.32
564.116,998.8
564.25,999.28
564.385,1000.74
564.52,999.66
564.654,1000.38
564.789,1002.92
564.923,1004.42
565.058,1006.26
565.192,1006.26
565.327,1008.52
565.461,1006.82
565.596,1007.14
565.731,1008.36
565.865,1008.88
566.0,1006.66
566.134,1008.12
566.269,1008.46
566.403,1008.18
566.538,1007.08
566.672,1003.46
566.806,1002.94
566.941,1002.66
567.075,1001.06
567.21,1002.0
567.344,1001.68
567.479,1003.72
567.613,1004.46
567.748,1003.22
567.882,1004.6
568.016,1003.36
568.151,1002.12
568.285,1005.34
568.42,1007.3
568.554,1006.12
568.688,1008.62
568.823,1009.28
568.957,1010.06
569.091,1009.78
569.226,1011.48
569.36,1010.8
569.494,1010.5
569.629,1013.28
569.763,1014.62
569.897,1012.32
570.032,1012.7
570.166,1013.7
570.3,1013.92
570.435,1014.52
570.569,1012.4
570.703,1013.64
570.837,1014.7
570.972,1013.64
571.106,1014.9
571.24,1013.08
571.375,1014.96
571.509,1018.02
571.643,1019.82
571.777,1018.06
571.911,1017.16
572.046,1015.42
572.18,1018.52
572.314,1018.9
572.448,1022.02
572.582,1018.98
572.717,1022.92
572.851,1021.46
572.985,1023.04
573.119,1022.14
573.253,1023.42
573.388,1024.9
573.522,1025.2
573.656,1027.12
573.79,1026.52
573.924,1024.94
574.058,1022.76
574.192,1024.92
574.326,1024.58
574.461,1027.4
574.595,1026.04
574.729,1025.74
574.863,1028.92
574.997,1026.26
575.131,1026.08
575.265,1026.6
575.399,1026.22
575.533,1025.74
575.667,1029.14
575.801,1027.94
575.935,1028.16
576.069,1029.06
576.203,1030.86
576.337,1033.52
576.472,1032.32
576.606,1031.5
576.74,1032.5
576.874,1034.14
577.008,1034.2
577.142,1030.16
577.276,1033.8
577.409,1031.16
577.543,1033.54
577.677,1036.08
577.811,1036.66
577.945,1037.06
578.079,1038.48
578.213,1038.76
578.347,1037.84
578.481,1035.48
578.615,1039.32
578.749,1040.3
578.883,1036.66
579.017,1035.48
579.151,1036.36
579.285,1036.62
579.418,1036.28
579.552,1035.76
579.686,1033.82
579.82,1033.36
579.954,1035.12
580.088,1034.74
580.222,1033.56
580.356,1037.86
580.489,1033.18
580.623,1038.88
580.757,1034.86
580.891,1034.06
581.025,1038.0
581.158,1036.68
581.292,1035.0
581.426,1038.98
581.56,1037.64
581.694,1038.4
581.827,1040.52
581.961,1039.44
582.095,1040.3
582.229,1041.48
582.363,1040.82
582.496,1043.3
582.63,1041.4
582.764,1040.7
582.898,1039.18
583.031,1042.18
583.165,1040.46
583.299,1040.3
583.432,1039.28
583.566,1042.24
583.7,1041.12
583.834,1042.06
583.967,1039.1
584.101,1043.16
584.235,1043.28
584.368,1042.72
584.502,1040.86
584.636,1043.42
584.769,1042.86
584.903,1042.18
585.037,1041.92
585.17,1043.4
585.304,1044.2
585.438,1042.86
585.571,1042.54
585.705,1045.1
585.838,1044.7
585.972,1045.04
586.106,1044.12
586.239,1042.54
586.373,1044.88
586.506,1047.84
586.64,1047.52
586.774,1049.14
586.907,1043.74
587.041,1048.48
587.174,1046.14
587.308,1045.44
587.441,1047.94
587.575,1049.3
587.708,1048.18
587.842,1047.12
587.976,1046.94
588.109,1045.44
588.243,1048.12
588.376,1043.16
588.51,1045.94
588.643,1046.96
588.777,1044.8
588.91,1045.52
589.044,1043.58
589.177,1045.56
589.311,1044.82
589.444,1046.9
589.577,1044.64
589.711,1043.82
589.844,1044.26
589.978,1047.62
590.111,1045.58
590.245,1046.52
590.378,1046.02
590.512,1044.8
590.645,1046.38
590.778,1046.92
590.912,1047.2
591.045,1046.92
591.179,1045.82
591.312,1046.96
591.445,1048.0
591.579,1046.98
591.712,1047.06
591.846,1047.12
591.979,1044.16
592.112,1048.68
592.246,1045.36
592.379,1048.12
592.512,1046.3
592.646,1045.74
592.779,1045.0
592.912,1045.96
593.046,1043.5
593.179,1045.34
593.312,1045.68
593.446,1044.18
593.579,1043.98
593.712,1045.08
593.846,1047.4
593.979,1046.0
594.112,1046.6
594.245,1048.14
594.379,1047.5
594.512,1045.04
594.645,1047.42
594.778,1046.78
594.912,1046.9
595.045,1051.06
595.178,1049.02
595.311,1048.36
595.445,1049.64
595.578,1049.16
595.711,1050.02
595.844,1047.6
595.978,1050.32
596.111,1048.38
596.244,1049.42
596.377,1047.86
596.51,1049.56
596.643,1051.36
596.777,1051.52
596.91,1049.8
597.043,1049.98
597.176,1049.54
597.309,1049.66
597.443,1050.88
597.576,1049.38
597.709,1049.0
597.842,1049.22
597.975,1051.08
598.108,1049.14
598.241,1051.88
598.374,1052.04
598.508,1050.04
598.641,1050.54
598.774,1052.74
598.907,1054.42
599.04,1052.14
599.173,1053.96
599.306,1052.74
599.439,1051.78
599.572,1051.22
599.705,1051.8
599.838,1051.8
599.972,1053.4
600.105,1051.38
600.238,1049.9
600.371,1048.96
600.504,1050.86
600.637,1048.04
600.77,1051.98
600.903,1051.14
601.036,1049.24
601.169,1050.62
601.302,1047.62
601.435,1048.56
601.568,1049.0
601.701,1044.58
601.834,1046.46
601.967,1048.74
602.1,1047.88
602.233,1047.0
602.366,1049.26
602.499,1049.2
602.632,1048.56
602.765,1051.44
602.898,1047.78
603.031,1050.26
603.164,1050.64
603.296,1049.08
603.429,1049.84
603.562,1049.26
603.695,1049.38
603.828,1050.34
603.961,1050.12
604.094,1048.9
604.227,1048.62
604.36,1050.4
604.493,1047.18
604.626,1047.28
604.758,1047.14
604.891,1046.62
605.024,1046.86
605.157,1045.44
605.29,1044.94
605.423,1046.5
605.556,1041.54
605.689,1041.52
605.821,1043.36
605.954,1041.66
606.087,1042.34
606.22,1042.28
606.353,1041.4
606.486,1040.4
606.618,1039.72
606.751,1040.98
606.884,1039.56
607.017,1038.6
607.15,1041.32
607.282,1040.44
607.415,1042.56
607.548,1039.62
607.681,1043.0
607.814,1040.96
607.946,1041.24
608.079,1041.04
608.212,1040.8
608.345,1043.9
608.477,1043.44
608.61,1042.24
608.743,1041.84
608.876,1041.46
609.008,1041.88
609.141,1042.7
609.274,1043.04
609.407,1042.0
609.539,1041.04
609.672,1041.64
609.805,1040.06
609.937,1042.08
610.07,1042.26
610.203,1042.42
610.335,1041.1
610.468,1041.74
610.601,1040.72
610.734,1040.94
610.866,1042.0
610.999,1040.52
611.132,1041.84
611.264,1040.56
611.397,1041.28
611.529,1037.86
611.662,1039.1
611.795,1040.34
611.927,1041.68
612.06,1045.54
612.193,1041.02
612.325,1041.92
612.458,1044.28
612.591,1044.82
612.723,1043.58
612.856,1045.74
612.988,1045.7
613.121,1046.82
613.254,1045.68
613.386,1048.06
613.519,1048.04
613.651,1047.72
613.784,1045.88
613.916,1047.32
614.049,1045.28
614.182,1047.76
614.314,1045.96
614.447,1047.58
614.579,1045.96
614.712,1047.24
614.844,1046.26
614.977,1045.56
615.109,1045.56
615.242,1047.16
615.374,1045.7
615.507,1047.0
615.639,1043.42
615.772,1041.88
615.904,1043.48
616.037,1046.74
616.169,1045.42
616.302,1043.0
616.434,1045.28
616.567,1044.92
616.699,1045.78
616.832,1045.82
616.964,1044.64
617.097,1047.36
617.229,1046.44
617.362,1047.1
617.494,1047.3
617.627,1046.76
617.759,1046.28
617.892,1050.26
618.024,1049.26
618.156,1045.62
618.289,1045.46
618.421,1047.42
618.554,1046.8
618.686,1047.66
618.819,1047.5
618.951,1043.02
619.083,1046.1
619.216,1045.1
619.348,1044.96
619.481,1044.48
619.613,1044.02
619.745,1043.3
619.878,1043.88
620.01,1043.5
620.142,1042.98
620.275,1044.6
620.407,1045.84
620.54,1043.26
620.672,1043.54
620.804,1041.74
620.937,1042.24
621.069,1041.58
621.201,1039.58
621.334,1041.32
621.466,1041.32
621.598,1041.46
621.731,1041.78
621.863,1043.36
621.995,1044.16
622.128,1043.22
622.26,1043.48
622.392,1043.3
622.524,1045.42
622.657,1044.96
622.789,1045.56
622.921,1041.94
623.054,1045.66
623.186,1041.56
623.318,1045.28
623.45,1045.72
623.583,1043.26
623.715,1044.1
623.847,1044.3
623.979,1044.46
624.112,1045.42
624.244,1044.38
624.376,1043.82
624.508,1045.86
624.641,1044.48
624.773,1045.34
624.905,1043.64
625.037,1043.36
625.17,1043.3
625.302,1043.06
625.434,1039.8
625.566,1042.74
625.698,1045.36
625.831,1042.6
625.963,1040.32
626.095,1042.86
626.227,1040.42
626.359,1040.92
626.492,1041.9
626.624,1042.16
626.756,1043.36
626.888,1049.5
627.02,1055.7
627.152,1059.1
627.285,1062.5
627.417,1066.06
627.549,1061.9
627.681,1061.26
627.813,1056.08
627.945,1054.24
628.077,1053.82
628.21,1054.3
628.342,1058.32
628.474,1058.86
628.606,1066.24
628.738,1065.58
628.87,1061.7
629.002,1058.12
629.134,1056.34
629.267,1056.44
629.399,1054.54
629.531,1051.46
629.663,1052.44
629.795,1050.78
629.927,1051.68
630.059,1050.16
630.191,1050.54
630.323,1051.32
630.455,1050.3
630.587,1053.24
630.719,1050.22
630.851,1048.08
630.984,1045.22
631.116,1044.48
631.248,1040.66
631.38,1040.44
631.512,1041.44
631.644,1038.74
631.776,1036.5
631.908,1038.42
632.04,1038.28
632.172,1036.58
632.304,1035.28
632.436,1034.44
632.568,1034.98
632.7,1034.4
632.832,1033.82
632.964,1033.86
633.096,1034.02
633.228,1031.84
633.36,1035.46
633.492,1034.62
633.624,1035.98
633.756,1034.32
633.888,1032.4
634.02,1032.38
634.152,1033.04
634.284,1035.22
634.416,1031.26
634.548,1034.02
634.68,1031.54
634.812,1032.02
634.944,1031.16
635.076,1028.12
635.207,1030.32
635.339,1031.72
635.471,1027.62
635.603,1029.4
635.735,1033.84
635.867,1030.86
635.999,1031.22
636.131,1031.74
636.263,1030.36
636.395,1030.16
636.527,1029.54
636.659,1028.88
636.791,1030.96
636.922,1032.8
637.054,1026.94
637.186,1027.32
637.318,1026.68
637.45,1028.42
637.582,1029.28
637.714,1029.9
637.846,1027.26
637.977,1028.0
638.109,1023.0
638.241,1026.48
638.373,1028.42
638.505,1028.96
638.637,1026.34
638.769,1026.5
638.901,1024.72
639.032,1023.98
639.164,1024.08
639.296,1023.68
639.428,1024.44
639.56,1026.86
639.692,1027.68
639.823,1026.3
639.955,1025.94
640.087,1024.82
640.219,1023.82
640.351,1023.84
640.482,1023.94
640.614,1023.76
640.746,1025.26
640.878,1025.52
641.01,1024.62
641.142,1024.7
641.273,1025.74
641.405,1025.1
641.537,1022.62
641.669,1024.94
641.8,1023.56
641.932,1022.34
642.064,1022.32
642.196,1025.4
642.328,1021.0
642.459,1021.44
642.591,1021.8
642.723,1020.56
642.855,1019.06
642.986,1021.94
643.118,1018.68
643.25,1018.5
643.382,1017.12
643.513,1018.54
643.645,1016.46
643.777,1014.86
643.909,1015.52
644.04,1015.86
644.172,1014.74
644.304,1015.22
644.435,1015.72
644.567,1012.9
644.699,1014.12
644.831,1014.66
644.962,1011.48
645.094,1015.22
645.226,1014.84
645.357,1012.04
645.489,1010.92
645.621,1011.22
645.753,1015.2
645.884,1012.78
646.016,1011.66
646.148,1012.08
646.279,1010.98
646.411,1010.54
646.543,1011.04
646.674,1014.6
646.806,1011.82
646.938,1012.58
647.069,1009.9
647.201,1009.06
647.333,1011.38
647.464,1011.22
647.596,1011.7
647.728,1012.36
647.859,1010.78
647.991,1012.42
648.123,1012.92
648.254,1005.26
648.386,1011.46
648.517,1010.16
648.649,1010.58
648.781,1008.36
648.912,1006.82
649.044,1007.2
649.176,1007.78
649.307,1007.8
649.439,1005.04
649.57,1006.88
649.702,1006.08
649.834,1006.0
649.965,1007.86
650.097,1006.44
650.228,1006.24
650.36,1005.96
650.492,1006.92
650.623,1004.88
650.755,1005.34
650.886,1005.66
651.018,1005.28
651.15,1001.94
651.281,1006.72
651.413,1004.44
651.544,1004.56
651.676,1005.38
651.808,1003.46
651.939,1002.56
652.071,1002.6
652.202,1002.58
652.334,1005.48
652.465,1003.92
652.597,1003.34
652.728,1003.48
652.86,1004.58
652.992,1005.06
653.123,1004.62
653.255,1003.56
653.386,1002.6
653.518,1002.58
653.649,1002.24
653.781,1002.62
653.912,1003.02
654.044,1003.74
654.175,1005.12
654.307,1003.14
654.438,1002.88
654.57,1003.38
654.701,1002.82
654.833,1001.76
654.965,1001.04
655.096,1001.6
655.228,1000.78
655.359,1000.4
655.491,1000.74
655.622,1002.24
655.754,1002.86
655.885,1000.28
656.017,998.48
656.148,998.0
656.28,998.12
656.411,998.9
656.542,999.72
656.674,1000.2
656.805,999.68
656.937,999.94
657.068,1001.02
657.2,998.94
657.331,997.14
657.463,1000.16
657.594,1000.78
657.726,999.66
657.857,998.74
657.989,1001.08
658.12,1000.24
658.252,999.56
658.383,998.98
658.515,1000.5
658.646,998.66
658.777,998.68
658.909,998.96
659.04,997.78
659.172,1000.82
659.303,1000.28
659.435,1000.38
659.566,998.8
659.698,996.98
659.829,998.68
659.96,999.74
660.092,998.6
660.223,997.54
660.355,998.9
660.486,996.8
660.618,997.5
660.749,996.96
660.88,995.26
661.012,997.22
661.143,996.28
661.275,997.36
661.406,996.18
661.537,995.06
661.669,994.96
661.8,994.66
661.932,994.38
662.063,994.98
662.194,992.6
662.326,993.42
662.457,993.48
662.589,993.26
662.72,993.84
662.851,991.3
662.983,992.12
663.114,991.62
