nm,Intensity
791.588,5255.6
791.862,5268.46
792.136,5271.18
792.411,5252.9
792.685,5252.44
792.959,5242.62
793.233,5258.68
793.507,5268.72
793.781,5281.12
794.056,5273.52
794.33,5276.7
794.604,5265.2
794.878,5277.9
795.152,5295.54
795.426,5281.36
795.701,5260.8
795.975,5247.34
796.249,5248.32
796.523,5248.26
796.797,5252.32
797.071,5258.74
797.345,5282.92
797.619,5291.66
797.894,5274.06
798.168,5273.54
798.442,5276.24
798.716,5283.26
798.99,5267.48
799.264,5276.88
799.538,5280.72
799.812,5278.34
800.086,5268.22
800.36,5245.82
800.634,5271.0
800.908,5277.06
801.182,5243.18
801.456,5266.32
801.73,5248.44
802.004,5265.76
802.278,5256.0
802.552,5239.64
802.826,5246.54
803.1,5250.0
803.374,5246.78
803.648,5255.56
803.922,5265.36
804.196,5239.02
804.47,5233.58
804.744,5230.38
805.018,5259.04
805.292,5259.5
805.566,5277.44
805.84,5240.74
806.114,5248.68
806.388,5236.48
806.662,5274.04
806.936,5260.44
807.209,5240.96
807.483,5238.76
807.757,5223.08
808.031,5225.5
808.305,5224.32
808.579,5234.8
808.853,5225.8
809.127,5224.28
809.4,5185.86
809.674,5187.46
809.948,5194.32
810.222,5177.36
810.496,5181.08
810.77,5169.78
811.043,5165.66
811.317,5166.8
811.591,5182.9
811.865,5176.9
812.139,5148.56
812.412,5132.78
812.686,5150.08
812.96,5119.44
813.234,5101.56
813.507,5099.22
813.781,5076.92
814.055,5085.64
814.329,5083.66
814.602,5049.14
814.876,5028.92
815.15,5059.48
815.424,5082.24
815.697,5050.54
815.971,5046.58
816.245,5032.46
816.518,5038.08
816.792,5027.24
817.066,5044.78
817.34,5051.3
817.613,5012.3
817.887,5004.34
818.161,5025.24
818.434,5035.84
818.708,5040.62
818.981,5026.3
819.255,5030.28
819.529,5023.58
819.802,5012.02
820.076,5015.36
820.35,5058.04
820.623,5078.42
820.897,5067.9
821.17,5033.88
821.444,5045.2
821.718,5034.0
821.991,5009.94
822.265,5014.7
822.538,4969.02
822.812,4935.12
823.085,4927.08
823.359,4968.56
823.632,4983.72
823.906,4998.52
824.18,5012.0
824.453,5018.98
824.727,5042.14
825.0,5005.06
825.274,5011.98
825.547,5008.5
825.821,5001.58
826.094,5009.24
826.367,5009.06
826.641,5001.32
826.914,4995.7
827.188,4994.62
827.461,4958.72
827.735,4931.36
828.008,4944.26
828.282,4956.88
828.555,4979.82
828.828,4981.72
829.102,4960.32
829.375,4954.94
829.649,4957.32
829.922,4940.88
830.195,4947.44
830.469,4950.14
830.742,4939.54
831.016,4942.92
831.289,4948.28
831.562,4941.18
831.836,4938.56
832.109,4918.92
832.382,4926.16
832.656,4920.04
832.929,4914.06
833.202,4898.14
833.476,4920.76
833.749,4924.44
834.022,4927.22
834.295,4929.86
834.569,4905.58
834.842,4884.32
835.115,4926.6
835.388,4912.16
835.662,4909.44
835.935,4910.76
836.208,4905.36
836.481,4904.22
836.755,4904.08
837.028,4902.14
837.301,4899.3
837.574,4896.74
837.848,4888.78
838.121,4890.62
838.394,4890.68
838.667,4879.58
838.94,4894.18
839.213,4891.62
839.487,4886.3
839.76,4891.38
840.033,4863.42
840.306,4872.6
840.579,4864.58
840.852,4863.14
841.125,4871.34
841.399,4856.08
841.672,4852.26
841.945,4860.52
842.218,4877.9
842.491,4869.4
842.764,4865.34
843.037,4856.9
843.31,4833.02
843.583,4835.04
843.856,4836.9
844.129,4843.12
844.402,4832.62
844.675,4844.36
844.948,4832.2
845.221,4824.06
845.495,4838.32
845.768,4819.7
846.041,4829.18
846.314,4804.94
846.586,4814.5
846.859,4818.04
847.132,4797.56
847.405,4815.0
847.678,4811.84
847.951,4806.32
848.224,4810.26
848.497,4809.34
848.77,4796.72
849.043,4776.64
849.316,4758.62
849.589,4743.74
849.862,4745.02
850.135,4778.34
850.408,4781.22
850.681,4772.42
850.953,4755.1
851.226,4744.04
851.499,4751.16
851.772,4771.22
852.045,4770.42
852.318,4761.72
852.591,4748.88
852.863,4742.7
853.136,4736.76
853.409,4724.42
853.682,4695.92
853.955,4708.6
854.227,4698.3
854.5,4692.96
854.773,4707.98
855.046,4719.64
855.318,4736.88
855.591,4736.38
855.864,4707.58
856.137,4699.62
856.409,4702.94
856.682,4712.32
856.955,4713.12
857.228,4698.38
857.5,4689.76
857.773,4699.42
858.046,4717.12
858.318,4711.22
858.591,4714.74
858.864,4701.26
859.137,4702.84
859.409,4724.92
859.682,4690.2
859.954,4664.0
860.227,4674.02
860.5,4676.98
860.772,4661.12
861.045,4665.68
861.318,4666.16
861.59,4658.5
861.863,4657.5
862.135,4654.58
862.408,4655.28
862.681,4661.56
862.953,4672.98
863.226,4663.7
863.498,4658.28
863.771,4646.58
864.043,4643.3
864.316,4647.72
864.588,4644.42
864.861,4640.5
865.133,4633.68
865.406,4618.42
865.678,4616.64
865.951,4601.02
866.223,4597.92
866.496,4599.42
866.768,4611.9
867.041,4625.04
867.313,4624.1
867.586,4614.42
867.858,4599.16
868.131,4608.4
868.403,4611.66
868.675,4620.12
868.948,4599.86
869.22,4595.88
869.493,4589.8
869.765,4586.94
870.037,4591.5
870.31,4606.1
870.582,4591.74
870.854,4580.94
871.127,4583.52
871.399,4587.62
871.672,4579.74
871.944,4572.68
872.216,4578.24
872.488,4579.4
872.761,4573.18
873.033,4563.3
873.305,4567.18
873.578,4555.06
873.85,4547.58
874.122,4546.72
874.394,4554.14
874.667,4552.96
874.939,4553.22
875.211,4558.48
875.483,4552.0
875.756,4553.44
876.028,4539.3
876.3,4532.68
876.572,4541.36
876.845,4539.36
877.117,4546.78
877.389,4530.64
877.661,4517.04
877.933,4516.26
878.205,4507.4
878.478,4510.3
878.75,4509.42
879.022,4514.2
879.294,4513.26
879.566,4497.18
879.838,4500.44
880.11,4493.42
880.382,4500.2
880.654,4493.1
880.927,4475.2
881.199,4474.14
881.471,4483.26
881.743,4469.08
882.015,4485.42
882.287,4473.18
882.559,4464.68
882.831,4465.56
883.103,4463.18
883.375,4471.16
883.647,4485.5
883.919,4470.7
884.191,4454.54
884.463,4449.0
884.735,4432.28
885.007,4448.6
885.279,4451.72
885.551,4450.08
885.823,4439.82
886.095,4439.14
886.367,4427.96
886.639,4416.56
886.91,4421.4
887.182,4414.52
887.454,4414.8
887.726,4413.14
887.998,4411.46
888.27,4413.8
888.542,4404.88
888.814,4404.88
889.085,4412.3
889.357,4400.2
889.629,4396.44
889.901,4401.2
890.173,4392.46
890.445,4395.08
890.716,4393.62
890.988,4402.54
891.26,4386.1
891.532,4368.24
891.804,4364.68
892.075,4359.1
892.347,4360.38
892.619,4353.36
892.891,4351.14
893.162,4353.74
893.434,4336.72
893.706,4332.74
893.978,4321.78
894.249,4321.96
894.521,4304.88
894.793,4297.52
895.064,4294.2
895.336,4296.68
895.608,4299.52
895.879,4290.72
896.151,4280.56
896.423,4276.24
896.694,4265.94
896.966,4259.14
897.237,4270.84
897.509,4276.74
897.781,4263.78
898.052,4273.14
898.324,4258.04
898.595,4249.66
898.867,4251.5
899.139,4241.66
899.41,4242.64
899.682,4238.18
899.953,4233.18
900.225,4233.56
900.496,4227.72
900.768,4231.28
901.039,4230.08
901.311,4225.16
901.582,4223.12
901.854,4223.28
902.125,4216.94
902.397,4222.5
902.668,4233.2
902.94,4241.6
903.211,4242.28
903.482,4230.12
903.754,4240.16
904.025,4224.58
904.297,4223.12
904.568,4226.9
904.839,4216.88
905.111,4210.44
905.382,4206.26
905.654,4196.46
905.925,4190.38
906.196,4190.46
906.468,4190.32
906.739,4198.1
907.01,4182.18
907.282,4168.2
907.553,4169.5
907.824,4170.18
908.096,4166.9
908.367,4172.24
908.638,4164.16
908.909,4160.36
909.181,4156.22
909.452,4149.26
909.723,4148.44
909.994,4161.16
910.266,4166.48
910.537,4156.1
910.808,4154.84
911.079,4153.66
911.35,4152.18
911.622,4153.7
911.893,4146.0
912.164,4149.54
912.435,4130.2
912.706,4124.22
912.977,4119.7
913.249,4110.86
913.52,4114.44
913.791,4120.28
914.062,4118.06
914.333,4104.4
914.604,4106.56
914.875,4111.66
915.146,4111.48
915.417,4105.96
915.688,4102.58
915.959,4103.88
916.231,4096.74
916.502,4092.8
916.773,4095.02
917.044,4099.08
917.315,4092.82
917.586,4096.52
917.857,4089.9
918.128,4091.04
918.399,4089.62
918.67,4092.48
918.941,4092.62
919.211,4097.8
919.482,4093.72
919.753,4089.26
920.024,4091.48
920.295,4086.02
920.566,4082.5
920.837,4076.92
921.108,4074.58
921.379,4078.46
921.65,4075.7
921.921,4068.86
922.191,4068.42
922.462,4063.82
922.733,4061.18
923.004,4063.56
923.275,4057.9
923.546,4054.92
923.816,4057.64
924.087,4052.3
924.358,4049.62
924.629,4047.36
924.9,4040.38
925.17,4037.72
925.441,4036.72
925.712,4040.58
925.983,4037.9
926.253,4040.12
926.524,4034.24
926.795,4025.22
927.065,4025.62
927.336,4021.34
927.607,4015.94
927.877,4017.86
928.148,4007.44
928.419,3999.74
928.689,3996.74
928.96,3991.14
929.231,3987.4
929.501,3986.32
929.772,3988.16
930.043,3986.42
930.313,3984.26
930.584,3973.72
930.854,3978.2
931.125,3973.74
931.396,3972.26
931.666,3967.9
931.937,3960.24
932.207,3958.42
932.478,3959.1
932.748,3952.76
933.019,3951.22
933.289,3952.04
933.56,3952.7
933.83,3951.58
934.101,3951.62
934.371,3954.56
934.642,3951.14
934.912,3944.94
935.183,3945.16
935.453,3941.3
935.723,3938.08
935.994,3937.72
936.264,3941.12
936.535,3934.98
936.805,3931.58
937.075,3931.26
937.346,3931.48
937.616,3933.7
937.886,3929.04
938.157,3932.88
938.427,3932.48
938.697,3931.18
938.968,3929.9
939.238,3928.48
939.508,3928.54
939.779,3926.1
940.049,3924.7
940.319,3925.7
940.59,3923.36
940.86,3924.14
941.13,3918.66
941.4,3919.18
941.671,3916.78
941.941,3914.14
942.211,3914.02
942.481,3910.84
942.751,3910.62
943.022,3913.6
943.292,3909.4
943.562,3904.14
943.832,3909.04
944.102,3907.02
944.372,3905.56
944.642,3901.52
944.913,3900.88
945.183,3898.12
945.453,3895.96
945.723,3894.82
945.993,3895.8
946.263,3894.62
946.533,3896.42
946.803,3893.6
947.073,3893.74
947.343,3891.12
947.613,3886.1
947.883,3888.86
948.153,3884.74
948.423,3883.06
948.693,3887.24
948.963,3887.06
949.233,3884.4
949.503,3880.56
949.773,3882.72
950.043,3880.96
950.313,3881.18
950.583,3881.46
950.853,3880.28
951.123,3877.24
951.393,3877.02
951.663,3872.58
951.933,3873.18
952.202,3874.1
952.472,3874.94
952.742,3873.78
953.012,3864.72
953.282,3866.72
953.552,3868.32
953.822,3867.74
954.091,3866.22
954.361,3866.6
954.631,3864.16
954.901,3862.02
955.17,3860.3
955.44,3861.02
955.71,3861.46
955.98,3859.58
956.25,3857.66
956.519,3858.04
956.789,3860.7
957.059,3861.16
957.328,3860.82
957.598,3857.74
957.868,3856.6
958.137,3852.08
958.407,3853.64
958.677,3850.86
958.946,3850.42
959.216,3852.02
959.486,3851.28
959.755,3846.72
960.025,3847.42
960.294,3847.76
960.564,3848.22
960.834,3848.04
961.103,3845.86
961.373,3843.22
961.642,3845.66
961.912,3846.32
962.181,3843.02
962.451,3843.96
962.72,3841.92
962.99,3845.52
963.259,3843.52
963.529,3839.44
963.798,3840.32
964.068,3839.74
964.337,3839.32
964.607,3840.24
964.876,3840.66
965.146,3839.8
965.415,3841.94
965.684,3838.32
965.954,3837.22
966.223,3835.8
966.493,3836.88
966.762,3839.12
967.031,3837.54
967.301,3839.4
967.57,3839.32
967.839,3838.6
968.109,3836.78
968.378,3837.7
968.647,3838.64
968.917,3837.78
969.186,3837.34
969.455,3837.1
969.724,3834.78
969.994,3833.2
970.263,3830.96
970.532,3831.08
970.801,3831.24
971.071,3833.14
971.34,3830.8
971.609,3828.68
971.878,3825.62
972.147,3829.22
972.417,3829.4
972.686,3825.62
972.955,3822.06
973.224,3822.92
973.493,3821.8
973.762,3822.12
974.031,3820.76
974.3,3819.92
974.57,3817.42
974.839,3818.54
975.108,3815.52
975.377,3818.62
975.646,3817.28
975.915,3815.34
976.184,3816.34
976.453,3814.06
976.722,3814.64
976.991,3818.26
977.26,3816.26
977.529,3815.86
977.798,3810.78
978.067,3811.24
978.336,3813.12
978.605,3812.18
978.874,3811.36
979.143,3812.18
979.412,3811.08
979.68,3810.36
979.949,3811.58
980.218,3811.22
980.487,3810.72
980.756,3809.22
981.025,3811.58
981.294,3811.86
981.563,3811.02
981.831,3808.1
982.1,3808.66
982.369,3807.44
982.638,3810.42
982.907,3807.64
983.175,3806.62
983.444,3806.92
983.713,3805.06
983.982,3805.3
984.25,3806.22
984.519,3807.02
984.788,3806.24
985.057,3806.02
985.325,3803.72
985.594,3804.16
985.863,3804.82
986.131,3803.6
986.4,3803.26
986.669,3802.66
986.937,3804.1
987.206,3804.18
987.475,3801.18
987.743,3801.66
988.012,3799.96
988.28,3799.36
988.549,3799.0
988.817,3801.08
989.086,3798.84
989.355,3801.88
989.623,3800.22
989.892,3797.98
990.16,3798.72
990.429,3799.68
990.697,3796.9
990.966,3796.08
991.234,3795.38
991.503,3795.78
991.771,3795.7
992.04,3796.68
992.308,3795.44
992.576,3795.22
992.845,3796.16
993.113,3795.74
993.382,3794.56
993.65,3795.1
993.918,3794.18
994.187,3792.3
994.455,3790.4
994.723,3788.16
994.992,3790.4
995.26,3791.4
995.528,3789.96
995.797,3788.88
996.065,3789.06
996.333,3788.4
996.602,3788.18
996.87,3786.74
997.138,3787.6
997.406,3786.8
997.675,3787.32
997.943,3788.12
998.211,3787.9
998.479,3785.2
998.747,3787.04
999.016,3786.5
999.284,3785.04
999.552,3783.82
999.82,3783.2
1000.09,3784.1
1000.36,3782.8
1000.62,3782.38
1000.89,3781.3
1001.16,3782.5
1001.43,3780.1
1001.7,3782.4
1001.97,3783.2
1002.23,3781.66
1002.5,3780.48
1002.77,3777.8
1003.04,3777.72
1003.31,3777.28
1003.57,3777.2
1003.84,3777.34
1004.11,3775.58
1004.38,3775.82
1004.65,3777.16
1004.91,3775.98
1005.18,3775.78
1005.45,3775.6
1005.72,3774.84
1005.98,3774.5
1006.25,3774.14
1006.52,3773.7
1006.79,3773.0
1007.06,3773.9
1007.32,3773.3
1007.59,3771.52
1007.86,3772.2
1008.13,3772.56
1008.4,3772.56
1008.66,3771.44
1008.93,3769.46
1009.2,3772.2
1009.47,3770.76
1009.73,3769.82
1010.0,3769.22
1010.27,3769.6
1010.54,3769.86
1010.81,3768.96
1011.07,3768.9
1011.34,3769.34
1011.61,3770.24
1011.88,3770.26
1012.14,3769.38
1012.41,3768.3
1012.68,3766.94
1012.95,3768.18
1013.21,3766.7
1013.48,3764.7
1013.75,3765.38
1014.02,3766.16
1014.29,3765.28
1014.55,3765.2
1014.82,3764.28
1015.09,3765.78
1015.36,3764.3
1015.62,3764.68
1015.89,3764.76
1016.16,3763.82
1016.43,3763.5
1016.69,3763.7
1016.96,3763.72
1017.23,3763.54
1017.5,3762.88
1017.76,3761.62
1018.03,3762.32
1018.3,3763.54
1018.57,3761.88
1018.83,3761.94
1019.1,3760.96
1019.37,3760.98
1019.63,3759.96
1019.9,3760.32
1020.17,3759.08
1020.44,3759.14
1020.7,3758.62
1020.97,3758.48
1021.24,3758.46
1021.51,3759.02
1021.77,3757.04
1022.04,3759.64
1022.31,3758.74
1022.58,3758.58
1022.84,3756.92
1023.11,3756.7
1023.38,3756.32
1023.64,3756.98
1023.91,3756.04
1024.18,3756.44
1024.45,3756.78
1024.71,3756.4
1024.98,3755.34
1025.25,3755.92
1025.51,3755.5
1025.78,3756.3
1026.05,3755.58
1026.32,3754.08
1026.58,3754.24
1026.85,3753.96
1027.12,3753.28
1027.38,3753.62
1027.65,3753.78
1027.92,3754.42
1028.19,3754.24
1028.45,3753.4
1028.72,3753.06
1028.99,3752.6
1029.25,3752.96
1029.52,3753.22
1029.79,3752.3
1030.05,3752.58
1030.32,3751.74
1030.59,3752.52
1030.85,3751.74
1031.12,3751.1
1031.39,3752.12
1031.66,3751.5
1031.92,3750.4
1032.19,3750.76
1032.46,3751.18
1032.72,3750.96
1032.99,3750.7
1033.26,3751.16
1033.52,3750.54
1033.79,3750.72
1034.06,3750.44
1034.32,3749.88
1034.59,3750.36
1034.86,3749.92
1035.12,3750.6
1035.39,3750.66
1035.66,3750.32
1035.92,3750.04
1036.19,3749.88
1036.46,3749.5
1036.72,3749.52
1036.99,3749.02
1037.26,3748.64
1037.52,3748.92
1037.79,3748.04
1038.06,3748.36
1038.32,3748.22
1038.59,3748.62
1038.86,3748.94
1039.12,3747.98
1039.39,3748.96
1039.66,3749.42
1039.92,3748.34
1040.19,3749.64
1040.46,3747.98
1040.72,3748.22
1040.99,3748.22
1041.26,3746.58
1041.52,3746.34
1041.79,3747.4
1042.06,3747.2
1042.32,3746.62
1042.59,3746.58
1042.86,3747.04
1043.12,3746.62
1043.39,3746.9
1043.65,3746.46
1043.92,3747.86
1044.19,3746.42
1044.45,3746.16
1044.72,3746.14
1044.99,3745.06
1045.25,3744.56
1045.52,3745.12
1045.79,3744.98
1046.05,3745.34
1046.32,3745.04
1046.58,3745.0
1046.85,3746.38
1047.12,3745.68
1047.38,3745.48
1047.65,3745.78
1047.92,3746.0
1048.18,3745.02
1048.45,3744.42
1048.71,3743.86
1048.98,3745.32
1049.25,3744.98
1049.51,3744.32
1049.78,3743.8
1050.04,3743.48
1050.31,3744.18
1050.58,3743.52
1050.84,3744.44
1051.11,3744.52
1051.37,3744.74
1051.64,3745.92
1051.91,3744.64
1052.17,3744.36
1052.44,3744.42
1052.7,3743.14
1052.97,3744.62
1053.24,3743.18
1053.5,3744.22
1053.77,3743.96
1054.03,3744.84
1054.3,3743.8
1054.57,3744.88
1054.83,3744.32
1055.1,3743.48
1055.36,3744.34
1055.63,3743.42
1055.9,3743.26
1056.16,3743.86
1056.43,3743.46
1056.69,3743.52
1056.96,3742.96
1057.23,3742.82
1057.49,3743.6
1057.76,3743.56
1058.02,3743.6
1058.29,3743.04
1058.55,3742.96
1058.82,3743.32
1059.09,3742.5
1059.35,3742.94
1059.62,3742.32
1059.88,3743.96
1060.15,3743.28
1060.41,3742.94
1060.68,3742.36
1060.95,3742.36
1061.21,3743.48
1061.48,3742.94
1061.74,3742.96
1062.01,3743.36
1062.27,3742.76
1062.54,3743.36
1062.8,3743.14
1063.07,3742.9
1063.34,3743.02
1063.6,3743.64
1063.87,3742.2
1064.13,3743.7
1064.4,3742.92
1064.66,3742.66
1064.93,3741.72
1065.19,3742.14
1065.46,3742.38
1065.73,3742.5
1065.99,3740.86
1066.26,3742.04
1066.52,3741.88
1066.79,3742.72
1067.05,3742.2
1067.32,3742.02
1067.58,3741.86
1067.85,3741.98
1068.11,3741.36
