nm,Intensity
791.377,6582.64
791.652,6577.96
791.927,6596.18
792.202,6469.06
792.477,6360.2
792.752,6339.76
793.027,6300.9
793.301,6290.4
793.576,6350.78
793.851,6340.36
794.126,6327.06
794.401,6204.28
794.676,6352.8
794.951,6359.98
795.225,6339.52
795.5,6324.44
795.775,6309.5
796.05,6368.74
796.325,6386.04
796.599,6304.3
796.874,6214.7
797.149,6297.52
797.424,6293.56
797.698,6236.62
797.973,6190.64
798.248,6186.98
798.523,6221.06
798.797,6213.5
799.072,6255.24
799.347,6231.8
799.622,6178.74
799.896,6222.5
800.171,6199.9
800.446,6241.06
800.72,6227.36
800.995,6179.74
801.27,6097.38
801.544,6123.12
801.819,6205.94
802.094,6158.92
802.368,6086.62
802.643,6021.68
802.918,6079.84
803.192,6043.62
803.467,6098.24
803.742,6030.48
804.016,5990.06
804.291,6089.36
804.565,6055.6
804.84,6018.94
805.114,5986.22
805.389,5997.74
805.664,5998.26
805.938,5946.4
806.213,5962.92
806.487,5947.0
806.762,5975.96
807.036,5920.08
807.311,5924.62
807.585,5879.42
807.86,5870.86
808.134,5884.62
808.409,5843.48
808.683,5919.64
808.958,5888.68
809.232,5881.06
809.507,5887.78
809.781,5854.4
810.056,5893.4
810.33,5974.7
810.605,5940.46
810.879,5918.7
811.153,5864.82
811.428,5821.3
811.702,5835.58
811.977,5793.14
812.251,5750.82
812.525,5775.76
812.8,5754.7
813.074,5685.34
813.349,5734.94
813.623,5788.16
813.897,5790.6
814.172,5797.52
814.446,5759.62
814.72,5650.9
814.995,5643.74
815.269,5653.5
815.543,5657.8
815.818,5667.96
816.092,5638.88
816.366,5614.14
816.64,5542.34
816.915,5533.36
817.189,5597.3
817.463,5610.3
817.737,5600.16
818.012,5642.98
818.286,5557.62
818.56,5559.54
818.834,5606.8
819.109,5627.74
819.383,5529.24
819.657,5509.88
819.931,5519.38
820.205,5529.76
820.48,5543.64
820.754,5524.36
821.028,5512.98
821.302,5423.12
821.576,5459.26
821.85,5496.78
822.125,5496.66
822.399,5499.96
822.673,5473.36
822.947,5427.9
823.221,5414.64
823.495,5425.64
823.769,5470.66
824.043,5485.84
824.317,5414.84
824.591,5378.9
824.865,5376.62
825.14,5405.56
825.414,5412.74
825.688,5442.38
825.962,5431.16
826.236,5372.08
826.51,5397.48
826.784,5403.34
827.058,5360.12
827.332,5314.38
827.606,5326.1
827.88,5334.64
828.154,5298.8
828.428,5376.92
828.702,5380.06
828.976,5354.26
829.249,5296.3
829.523,5295.32
829.797,5282.38
830.071,5292.54
830.345,5348.28
830.619,5299.8
830.893,5264.26
831.167,5259.94
831.441,5266.66
831.715,5305.24
831.988,5298.18
832.262,5264.9
832.536,5273.94
832.81,5265.26
833.084,5269.04
833.358,5298.9
833.632,5254.24
833.905,5200.36
834.179,5172.46
834.453,5175.96
834.727,5191.1
835.001,5222.16
835.274,5250.46
835.548,5257.14
835.822,5227.5
836.096,5227.66
836.369,5219.5
836.643,5206.2
836.917,5231.68
837.191,5252.16
837.464,5316.2
837.738,5425.18
838.012,5442.7
838.285,5414.64
838.559,5337.32
838.833,5283.32
839.106,5219.78
839.38,5257.42
839.654,5330.02
839.927,5360.6
840.201,5306.92
840.475,5273.8
840.748,5215.28
841.022,5144.84
841.295,5175.0
841.569,5182.94
841.843,5157.36
842.116,5182.64
842.39,5131.98
842.663,5111.76
842.937,5123.62
843.211,5178.98
843.484,5149.04
843.758,5155.62
844.031,5115.4
844.305,5111.46
844.578,5121.64
844.852,5163.72
845.125,5144.06
845.399,5080.38
845.672,5097.24
845.946,5118.28
846.219,5067.0
846.493,5077.3
846.766,5123.52
847.039,5118.44
847.313,5097.62
847.586,5098.58
847.86,5108.94
848.133,5115.48
848.407,5106.64
848.68,5075.08
848.953,5109.46
849.227,5172.92
849.5,5178.54
849.773,5155.88
850.047,5142.74
850.32,5138.82
850.593,5125.72
850.867,5091.54
851.14,5048.28
851.413,5101.56
851.687,5118.78
851.96,5071.26
852.233,5042.32
852.507,5048.38
852.78,5065.02
853.053,5089.68
853.326,5052.46
853.6,5082.76
853.873,5115.4
854.146,5096.2
854.419,5059.98
854.693,5010.14
854.966,5020.9
855.239,5076.04
855.512,5072.72
855.785,5083.7
856.059,5075.08
856.332,5046.6
856.605,4995.8
856.878,5006.14
857.151,5005.74
857.424,5039.22
857.698,5018.08
857.971,5060.28
858.244,5070.82
858.517,5026.86
858.79,5010.26
859.063,4994.6
859.336,5019.46
859.609,5027.52
859.882,5030.82
860.155,5024.9
860.428,4981.32
860.701,4975.7
860.974,5029.74
861.247,5053.86
861.52,5017.94
861.793,5009.26
862.066,5078.06
862.339,5059.62
862.612,5042.74
862.885,5081.96
863.158,5126.04
863.431,5101.94
863.704,5084.02
863.977,5103.16
864.25,5079.94
864.523,5047.64
864.796,5034.0
865.069,4988.5
865.342,5007.78
865.615,5006.86
865.888,4989.96
866.16,4962.74
866.433,4977.98
866.706,4994.36
866.979,4998.9
867.252,5016.46
867.525,4991.74
867.798,4965.2
868.07,4977.06
868.343,4996.9
868.616,4973.74
868.889,4960.72
869.162,4930.96
869.434,4938.06
869.707,4949.74
869.98,4938.7
870.253,4960.2
870.525,4970.48
870.798,4971.1
871.071,4959.42
871.344,4964.76
871.616,4950.28
871.889,4946.18
872.162,4939.58
872.434,4933.12
872.707,4925.08
872.98,4929.06
873.252,4909.48
873.525,4943.02
873.798,4938.68
874.07,4962.5
874.343,4940.7
874.615,4914.26
874.888,4902.44
875.161,4931.86
875.433,4953.8
875.706,4965.98
875.978,5008.82
876.251,5006.96
876.524,5022.76
876.796,4992.2
877.069,4976.6
877.341,4960.8
877.614,4948.2
877.886,4923.22
878.159,4921.16
878.431,4898.5
878.704,4891.82
878.976,4913.86
879.249,4916.52
879.521,4886.74
879.794,4852.14
880.066,4855.9
880.338,4877.76
880.611,4861.16
880.883,4818.22
881.156,4831.64
881.428,4828.62
881.7,4826.08
881.973,4812.84
882.245,4775.36
882.518,4797.4
882.79,4786.6
883.062,4821.24
883.335,4832.18
883.607,4817.76
883.879,4804.0
884.152,4804.64
884.424,4834.7
884.696,4838.44
884.968,4864.88
885.241,4889.96
885.513,4911.84
885.785,4910.46
886.058,4890.02
886.33,4870.0
886.602,4881.36
886.874,4829.84
887.146,4816.12
887.419,4795.02
887.691,4796.76
887.963,4784.2
888.235,4746.3
888.507,4747.46
888.78,4722.52
889.052,4741.04
889.324,4699.76
889.596,4642.92
889.868,4663.96
890.14,4719.36
890.412,4733.58
890.684,4695.3
890.957,4664.32
891.229,4664.6
891.501,4707.94
891.773,4698.58
892.045,4679.42
892.317,4668.84
892.589,4645.18
892.861,4633.66
893.133,4669.0
893.405,4634.98
893.677,4635.32
893.949,4657.64
894.221,4625.12
894.493,4619.52
894.765,4594.8
895.037,4590.34
895.309,4589.84
895.581,4595.34
895.853,4566.18
896.125,4556.16
896.397,4601.86
896.668,4596.72
896.94,4578.6
897.212,4591.98
897.484,4586.72
897.756,4566.54
898.028,4548.82
898.3,4545.1
898.571,4518.7
898.843,4532.34
899.115,4517.5
899.387,4510.18
899.659,4537.98
899.931,4548.1
900.202,4517.82
900.474,4515.48
900.746,4495.68
901.018,4504.14
901.289,4504.0
901.561,4485.12
901.833,4497.94
902.105,4500.66
902.376,4481.82
902.648,4473.54
902.92,4465.08
903.191,4461.66
903.463,4456.2
903.735,4476.9
904.006,4478.94
904.278,4456.22
904.55,4453.14
904.821,4421.72
905.093,4423.26
905.365,4448.94
905.636,4436.44
905.908,4447.46
906.179,4442.6
906.451,4420.46
906.722,4421.76
906.994,4411.32
907.266,4402.44
907.537,4393.16
907.809,4394.4
908.08,4379.56
908.352,4386.16
908.623,4388.94
908.895,4378.18
909.166,4371.48
909.438,4352.74
909.709,4361.28
909.981,4377.24
910.252,4375.06
910.523,4383.72
910.795,4367.98
911.066,4344.14
911.338,4333.3
911.609,4315.38
911.881,4326.72
912.152,4353.12
912.423,4337.58
912.695,4332.76
912.966,4331.64
913.237,4312.74
913.509,4311.98
913.78,4308.08
914.051,4293.94
914.323,4295.12
914.594,4304.18
914.865,4303.72
915.136,4291.28
915.408,4285.32
915.679,4288.46
915.95,4284.58
916.221,4287.9
916.493,4282.9
916.764,4268.88
917.035,4265.58
917.306,4246.08
917.578,4239.38
917.849,4242.72
918.12,4240.3
918.391,4252.46
918.662,4253.04
918.933,4248.88
919.204,4246.2
919.476,4244.64
919.747,4245.96
920.018,4227.58
920.289,4203.94
920.56,4218.1
920.831,4218.1
921.102,4215.14
921.373,4191.38
921.644,4193.88
921.915,4208.24
922.186,4198.08
922.457,4193.72
922.728,4189.32
922.999,4190.56
923.27,4187.24
923.541,4181.26
923.812,4179.42
924.083,4176.26
924.354,4170.1
924.625,4162.94
924.896,4175.18
925.167,4170.2
925.438,4163.98
925.709,4164.56
925.98,4165.64
926.251,4159.92
926.522,4144.2
926.792,4149.28
927.063,4143.18
927.334,4136.42
927.605,4137.72
927.876,4120.0
928.147,4121.5
928.417,4126.54
928.688,4112.22
928.959,4111.52
929.23,4110.54
929.501,4111.72
929.771,4115.2
930.042,4122.22
930.313,4121.6
930.584,4106.62
930.854,4096.66
931.125,4085.1
931.396,4093.46
931.666,4095.14
931.937,4101.94
932.208,4094.52
932.478,4086.8
932.749,4096.04
933.02,4088.92
933.29,4065.74
933.561,4052.38
933.832,4059.1
934.102,4062.54
934.373,4074.58
934.643,4069.08
934.914,4059.38
935.184,4066.14
935.455,4054.9
935.726,4045.56
935.996,4043.56
936.267,4049.36
936.537,4044.16
936.808,4032.96
937.078,4031.88
937.349,4036.68
937.619,4041.8
937.89,4036.48
938.16,4029.92
938.43,4027.96
938.701,4031.68
938.971,4030.74
939.242,4028.86
939.512,4023.92
939.782,4013.12
940.053,4011.12
940.323,4014.24
940.594,4005.44
940.864,4010.36
941.134,4015.56
941.405,4011.36
941.675,4002.58
941.945,3994.38
942.216,4001.98
942.486,3994.92
942.756,3996.38
943.026,3995.84
943.297,4001.96
943.567,4008.84
943.837,3999.24
944.107,3984.34
944.378,3976.7
944.648,3978.2
944.918,3991.14
945.188,3987.78
945.458,3984.76
945.729,3973.4
945.999,3969.06
946.269,3964.42
946.539,3969.04
946.809,3974.22
947.079,3969.04
947.349,3964.18
947.62,3956.22
947.89,3958.16
948.16,3956.86
948.43,3961.16
948.7,3964.64
948.97,3956.44
949.24,3960.3
949.51,3953.08
949.78,3954.4
950.05,3959.48
950.32,3951.22
950.59,3941.9
950.86,3937.82
951.13,3945.16
951.4,3949.22
951.67,3947.02
951.94,3935.16
952.21,3930.7
952.48,3930.2
952.75,3926.2
953.02,3932.76
953.289,3935.72
953.559,3939.86
953.829,3935.68
954.099,3936.68
954.369,3931.9
954.639,3922.4
954.909,3918.7
955.178,3918.1
955.448,3922.98
955.718,3917.78
955.988,3915.86
956.257,3916.32
956.527,3917.62
956.797,3914.76
957.067,3911.88
957.336,3911.88
957.606,3911.56
957.876,3906.78
958.146,3908.9
958.415,3906.9
958.685,3910.98
958.955,3905.9
959.224,3898.6
959.494,3902.74
959.764,3899.12
960.033,3890.5
960.303,3892.58
960.572,3894.86
960.842,3897.52
961.112,3903.42
961.381,3898.5
961.651,3893.2
961.92,3890.62
962.19,3890.12
962.459,3890.24
962.729,3887.12
962.998,3887.2
963.268,3885.68
963.537,3889.2
963.807,3885.56
964.076,3885.24
964.346,3878.5
964.615,3877.98
964.885,3875.0
965.154,3879.8
965.424,3883.16
965.693,3878.82
965.962,3872.06
966.232,3869.08
966.501,3876.38
966.771,3873.14
967.04,3869.16
967.309,3869.98
967.579,3870.82
967.848,3874.72
968.117,3874.66
968.387,3870.12
968.656,3860.26
968.925,3857.7
969.194,3858.3
969.464,3860.84
969.733,3855.82
970.002,3851.16
970.271,3857.3
970.541,3858.2
970.81,3859.04
971.079,3854.9
971.348,3853.68
971.617,3853.86
971.887,3857.6
972.156,3856.9
972.425,3857.38
972.694,3860.1
972.963,3852.26
973.232,3847.5
973.501,3850.42
973.77,3846.88
974.04,3844.86
974.309,3843.2
974.578,3842.68
974.847,3845.54
975.116,3843.6
975.385,3840.9
975.654,3840.06
975.923,3839.3
976.192,3836.96
976.461,3838.6
976.73,3838.48
976.999,3838.44
977.268,3834.24
977.537,3831.52
977.806,3831.04
978.074,3833.64
978.343,3836.1
978.612,3838.92
978.881,3837.82
979.15,3836.98
979.419,3829.1
979.688,3827.8
979.957,3829.68
980.225,3827.44
980.494,3828.54
980.763,3828.78
981.032,3825.12
981.301,3817.82
981.569,3821.46
981.838,3821.06
982.107,3821.18
982.376,3820.48
982.644,3821.92
982.913,3818.1
983.182,3817.82
983.451,3818.08
983.719,3819.7
983.988,3821.02
984.257,3816.48
984.525,3815.48
984.794,3817.64
985.063,3817.04
985.331,3817.12
985.6,3817.58
985.868,3816.8
986.137,3816.22
986.406,3813.46
986.674,3811.66
986.943,3810.22
987.211,3810.86
987.48,3809.26
987.748,3808.46
988.017,3808.78
988.285,3806.7
988.554,3807.78
988.822,3804.12
989.091,3805.96
989.359,3806.34
989.628,3805.28
989.896,3804.64
990.164,3804.54
990.433,3801.1
990.701,3800.1
990.97,3801.46
991.238,3801.88
991.506,3804.6
991.775,3801.72
992.043,3800.0
992.311,3800.68
992.58,3799.68
992.848,3798.7
993.116,3793.54
993.385,3795.96
993.653,3798.04
993.921,3795.92
994.19,3794.92
994.458,3794.94
994.726,3794.96
994.994,3795.92
995.262,3794.32
995.531,3797.08
995.799,3795.64
996.067,3792.0
996.335,3791.58
996.603,3794.04
996.872,3794.36
997.14,3791.16
997.408,3790.84
997.676,3793.98
997.944,3791.24
998.212,3791.8
998.48,3789.76
998.748,3791.82
999.016,3795.56
999.284,3791.08
999.552,3790.52
999.82,3788.88
1000.09,3788.28
1000.36,3783.88
1000.62,3783.76
1000.89,3784.04
1001.16,3783.58
1001.43,3783.9
1001.7,3781.64
1001.96,3782.32
1002.23,3780.38
1002.5,3779.08
1002.77,3776.9
1003.04,3776.94
1003.3,3777.4
1003.57,3776.06
1003.84,3778.2
1004.11,3778.28
1004.38,3779.64
1004.64,3780.68
1004.91,3778.38
1005.18,3776.34
1005.45,3774.92
1005.71,3773.9
1005.98,3772.86
1006.25,3773.92
1006.52,3773.24
1006.79,3771.66
1007.05,3774.06
1007.32,3774.5
1007.59,3773.48
1007.86,3772.7
1008.12,3777.28
1008.39,3777.42
1008.66,3777.66
1008.93,3779.6
1009.19,3782.98
1009.46,3785.3
1009.73,3787.04
1010.0,3786.38
1010.26,3788.88
1010.53,3788.12
1010.8,3789.74
1011.07,3789.56
1011.33,3791.44
1011.6,3789.1
1011.87,3793.38
1012.14,3793.34
1012.4,3795.72
1012.67,3797.68
1012.94,3800.86
1013.21,3802.2
1013.47,3806.52
1013.74,3808.86
1014.01,3810.44
1014.28,3808.04
1014.54,3808.02
1014.81,3806.44
1015.08,3808.12
1015.35,3806.34
1015.61,3805.78
1015.88,3804.42
1016.15,3802.12
1016.42,3799.76
1016.68,3795.78
1016.95,3796.16
1017.22,3795.38
1017.48,3791.74
1017.75,3792.74
1018.02,3792.06
1018.29,3791.3
1018.55,3786.04
1018.82,3782.12
1019.09,3778.16
1019.36,3777.04
1019.62,3779.64
1019.89,3776.92
1020.16,3775.5
1020.42,3773.68
1020.69,3772.68
1020.96,3772.28
1021.23,3771.9
1021.49,3771.4
1021.76,3772.44
1022.03,3772.38
1022.29,3773.12
1022.56,3771.58
1022.83,3770.26
1023.09,3770.18
1023.36,3770.58
1023.63,3765.54
1023.9,3763.94
1024.16,3763.14
1024.43,3760.9
1024.7,3758.32
1024.96,3757.04
1025.23,3754.72
1025.5,3754.02
1025.76,3754.9
1026.03,3753.76
1026.3,3752.4
1026.56,3749.74
1026.83,3749.14
1027.1,3751.04
1027.37,3749.42
1027.63,3749.06
1027.9,3748.2
1028.17,3748.52
1028.43,3747.54
1028.7,3748.1
1028.97,3746.98
1029.23,3747.36
1029.5,3748.5
1029.77,3747.98
1030.03,3746.16
1030.3,3745.82
1030.57,3745.82
1030.83,3746.24
1031.1,3747.18
1031.37,3746.74
1031.63,3744.46
1031.9,3745.5
1032.17,3745.44
1032.43,3745.2
1032.7,3745.34
1032.97,3744.5
1033.23,3745.5
1033.5,3745.26
1033.77,3744.68
1034.03,3744.4
1034.3,3743.74
1034.57,3744.28
1034.83,3744.88
1035.1,3743.94
1035.36,3743.16
1035.63,3744.16
1035.9,3743.64
1036.16,3742.9
1036.43,3743.2
1036.7,3743.1
1036.96,3742.0
1037.23,3741.68
1037.5,3741.8
1037.76,3741.86
1038.03,3742.2
1038.3,3741.96
1038.56,3742.18
1038.83,3741.86
1039.09,3742.12
1039.36,3741.24
1039.63,3741.36
1039.89,3741.56
1040.16,3741.96
1040.43,3739.58
1040.69,3741.44
1040.96,3741.24
1041.22,3740.82
1041.49,3740.5
1041.76,3740.36
1042.02,3740.96
1042.29,3740.62
1042.55,3739.48
1042.82,3739.78
1043.09,3740.24
1043.35,3739.7
1043.62,3739.98
1043.89,3739.66
1044.15,3739.32
1044.42,3739.54
1044.68,3739.78
1044.95,3738.76
1045.22,3739.32
1045.48,3737.42
1045.75,3738.8
1046.01,3738.5
1046.28,3739.04
1046.55,3738.38
1046.81,3739.24
1047.08,3739.44
1047.34,3739.04
1047.61,3738.36
1047.88,3737.58
1048.14,3738.16
1048.41,3738.5
1048.67,3738.42
1048.94,3737.82
1049.2,3738.08
1049.47,3737.3
1049.74,3737.24
1050.0,3738.8
1050.27,3738.24
1050.53,3736.98
1050.8,3737.18
1051.06,3738.4
1051.33,3737.4
1051.6,3737.92
1051.86,3737.76
1052.13,3738.48
1052.39,3736.86
1052.66,3738.54
1052.92,3737.3
1053.19,3736.56
1053.46,3736.78
1053.72,3736.58
1053.99,3737.58
1054.25,3736.16
1054.52,3736.08
1054.78,3736.14
1055.05,3736.74
1055.32,3738.12
1055.58,3738.02
1055.85,3736.92
1056.11,3737.2
1056.38,3737.22
1056.64,3735.64
1056.91,3736.8
1057.17,3735.62
1057.44,3735.4
1057.7,3736.4
1057.97,3736.36
1058.24,3735.94
1058.5,3736.68
1058.77,3736.16
1059.03,3735.7
1059.3,3736.58
1059.56,3736.28
1059.83,3736.64
1060.09,3735.84
1060.36,3736.76
1060.62,3735.4
1060.89,3735.78
1061.15,3735.82
1061.42,3735.46
1061.68,3735.36
1061.95,3736.12
1062.22,3736.2
1062.48,3735.44
1062.75,3736.8
1063.01,3734.52
1063.28,3735.72
1063.54,3735.82
1063.81,3735.14
1064.07,3734.78
1064.34,3735.14
1064.6,3735.48
1064.87,3734.74
1065.13,3735.08
1065.4,3735.38
1065.66,3736.46
1065.93,3735.08
1066.19,3734.62
1066.46,3734.38
1066.72,3735.34
1066.99,3734.58
1067.25,3735.04
1067.52,3735.04
1067.78,3733.36
1068.05,3734.54
