nm,Intensity
791.75,9497.4
792.024,9488.45
792.298,9380.7
792.572,9302.5
792.846,9252.05
793.12,9198.2
793.394,9052.1
793.668,9047.9
793.942,9018.0
794.215,8797.45
794.489,8694.85
794.763,8645.3
795.037,8529.1
795.311,8350.6
795.585,8321.2
795.859,8332.1
796.133,8045.35
796.407,8016.05
796.681,7929.05
796.955,7939.15
797.228,7940.7
797.502,7872.7
797.776,7766.35
798.05,7782.4
798.324,7792.9
798.598,7593.6
798.871,7640.0
799.145,7670.75
799.419,7606.8
799.693,7564.6
799.967,7644.55
800.241,7615.45
800.514,7579.05
800.788,7527.1
801.062,7452.9
801.336,7446.05
801.61,7492.35
801.883,7470.55
802.157,7404.45
802.431,7321.2
802.705,7385.95
802.978,7488.35
803.252,7402.3
803.526,7462.75
803.8,7431.7
804.073,7337.55
804.347,7299.65
804.621,7413.4
804.894,7298.35
805.168,7386.15
805.442,7363.85
805.715,7387.15
805.989,7325.0
806.263,7329.6
806.536,7357.2
806.81,7426.5
807.084,7483.35
807.357,7403.2
807.631,7386.35
807.905,7460.3
808.178,7396.85
808.452,7381.9
808.726,7502.05
808.999,7466.85
809.273,7473.25
809.546,7497.5
809.82,7574.05
810.094,7576.15
810.367,7615.4
810.641,7561.65
810.914,7569.9
811.188,7507.4
811.461,7435.05
811.735,7543.05
812.008,7724.15
812.282,7680.2
812.556,7555.45
812.829,7539.85
813.103,7552.4
813.376,7587.3
813.65,7594.3
813.923,7565.7
814.197,7578.7
814.47,7574.15
814.744,7551.2
815.017,7600.55
815.29,7637.65
815.564,7699.45
815.837,7564.55
816.111,7564.85
816.384,7490.5
816.658,7585.75
816.931,7669.2
817.205,7668.8
817.478,7679.95
817.751,7574.75
818.025,7640.45
818.298,7598.0
818.572,7662.5
818.845,7749.2
819.118,7792.85
819.392,7703.65
819.665,7626.8
819.938,7781.75
820.212,7641.65
820.485,7723.75
820.758,7800.75
821.032,7779.0
821.305,7624.2
821.578,7553.4
821.852,7738.1
822.125,7714.9
822.398,7713.2
822.672,7562.3
822.945,7539.3
823.218,7474.3
823.491,7633.8
823.765,7700.05
824.038,7595.85
824.311,7523.8
824.585,7429.2
824.858,7606.75
825.131,7462.8
825.404,7421.25
825.677,7483.5
825.951,7469.35
826.224,7378.7
826.497,7391.95
826.77,7377.9
827.043,7416.45
827.317,7357.4
827.59,7339.4
827.863,7360.55
828.136,7404.85
828.409,7260.6
828.682,7249.7
828.956,7298.4
829.229,7428.8
829.502,7393.55
829.775,7353.2
830.048,7320.65
830.321,7313.95
830.594,7244.9
830.867,7250.95
831.14,7257.9
831.413,7299.5
831.687,7346.15
831.96,7296.4
832.233,7197.25
832.506,7225.65
832.779,7235.5
833.052,7301.55
833.325,7268.35
833.598,7363.45
833.871,7193.4
834.144,7142.3
834.417,7245.65
834.69,7315.15
834.963,7282.5
835.236,7239.75
835.509,7199.8
835.782,7239.8
836.055,7336.55
836.328,7260.25
836.601,7317.45
836.874,7259.85
837.147,7214.3
837.419,7307.05
837.692,7396.65
837.965,7395.6
838.238,7373.6
838.511,7386.2
838.784,7259.35
839.057,7119.5
839.33,7168.0
839.603,7200.65
839.876,7305.45
840.148,7283.1
840.421,7270.35
840.694,7392.65
840.967,7320.0
841.24,7279.85
841.513,7286.5
841.785,7239.3
842.058,7178.7
842.331,7181.05
842.604,7243.9
842.877,7203.0
843.149,7146.7
843.422,7252.05
843.695,7191.6
843.968,7261.15
844.24,7247.95
844.513,7131.7
844.786,7226.1
845.059,7268.85
845.331,7120.95
845.604,7123.65
845.877,7335.5
846.15,7277.95
846.422,7309.0
846.695,7237.9
846.968,7285.1
847.24,7310.45
847.513,7093.45
847.786,7092.3
848.058,7141.95
848.331,7185.35
848.604,7178.05
848.876,7200.0
849.149,7228.4
849.421,7150.05
849.694,7148.75
849.967,7184.3
850.239,7218.35
850.512,7212.0
850.784,7140.9
851.057,7145.35
851.33,7180.55
851.602,7229.3
851.875,7188.5
852.147,7076.35
852.42,7068.3
852.692,7188.25
852.965,7224.1
853.237,7137.65
853.51,7152.75
853.782,7252.2
854.055,7109.05
854.327,7106.7
854.6,7099.9
854.872,7050.2
855.145,7063.3
855.417,7099.65
855.69,7043.05
855.962,7074.3
856.235,7134.25
856.507,7175.2
856.779,7147.5
857.052,7108.6
857.324,7024.8
857.597,7070.3
857.869,7099.85
858.142,7033.7
858.414,7065.25
858.686,7117.25
858.959,7014.65
859.231,7031.05
859.503,7108.9
859.776,7069.75
860.048,7051.6
860.32,7111.3
860.593,7074.25
860.865,7127.35
861.137,6997.85
861.41,7065.1
861.682,6964.45
861.954,6908.4
862.226,6984.1
862.499,7057.6
862.771,7164.45
863.043,7030.1
863.315,7063.9
863.588,7078.55
863.86,7019.3
864.132,7041.4
864.404,7069.35
864.677,6995.8
864.949,6879.6
865.221,6836.45
865.493,6998.2
865.765,6941.55
866.038,6949.5
866.31,6826.4
866.582,6848.6
866.854,6979.0
867.126,6983.2
867.398,6939.8
867.67,6842.85
867.943,6843.95
868.215,6885.5
868.487,6888.5
868.759,6831.15
869.031,6794.35
869.303,6721.4
869.575,6933.2
869.847,6939.85
870.119,6892.5
870.391,6860.7
870.663,6810.6
870.935,6803.0
871.207,6714.05
871.479,6716.95
871.751,6835.95
872.023,6845.15
872.295,6760.55
872.567,6679.6
872.839,6736.85
873.111,6819.0
873.383,6725.35
873.655,6597.65
873.927,6626.9
874.199,6755.3
874.471,6701.15
874.743,6688.7
875.015,6699.05
875.287,6793.0
875.559,6794.0
875.831,6743.65
876.103,6740.5
876.374,6726.9
876.646,6645.5
876.918,6578.05
877.19,6536.4
877.462,6596.65
877.734,6611.0
878.006,6696.35
878.277,6684.15
878.549,6658.4
878.821,6599.7
879.093,6640.55
879.365,6679.95
879.636,6630.85
879.908,6614.3
880.18,6511.45
880.452,6509.05
880.723,6461.65
880.995,6349.9
881.267,6443.05
881.539,6479.4
881.81,6527.6
882.082,6515.8
882.354,6503.15
882.626,6543.8
882.897,6414.0
883.169,6419.0
883.441,6419.15
883.712,6358.05
883.984,6379.1
884.256,6445.45
884.527,6457.7
884.799,6488.1
885.07,6521.55
885.342,6402.9
885.614,6418.6
885.885,6298.35
886.157,6261.0
886.428,6309.4
886.7,6421.65
886.972,6446.2
887.243,6400.15
887.515,6263.9
887.786,6204.5
888.058,6206.35
888.329,6225.4
888.601,6280.25
888.872,6268.25
889.144,6238.1
889.415,6216.5
889.687,6183.95
889.958,6183.0
890.23,6152.95
890.501,6152.9
890.773,6166.05
891.044,6086.55
891.316,6019.35
891.587,6109.0
891.859,6134.15
892.13,6149.05
892.401,6052.15
892.673,6051.25
892.944,6015.0
893.216,6042.05
893.487,5969.45
893.758,6042.3
894.03,6018.15
894.301,6082.6
894.572,6029.95
894.844,5944.4
895.115,5931.55
895.386,5989.3
895.658,6006.0
895.929,5906.15
896.2,5920.1
896.472,5930.05
896.743,5998.2
897.014,5988.7
897.285,5901.0
897.557,5892.05
897.828,5872.45
898.099,5890.3
898.37,5846.6
898.642,5805.85
898.913,5868.25
899.184,5828.9
899.455,5798.3
899.726,5865.9
899.998,5864.75
900.269,5838.5
900.54,5790.1
900.811,5796.85
901.082,5780.15
901.353,5825.8
901.625,5827.45
901.896,5751.0
902.167,5734.5
902.438,5713.9
902.709,5714.8
902.98,5682.7
903.251,5715.7
903.522,5703.35
903.793,5702.85
904.064,5737.5
904.335,5694.9
904.606,5708.0
904.877,5763.3
905.148,5700.85
905.419,5557.35
905.69,5557.1
905.961,5574.55
906.232,5592.0
906.503,5634.05
906.774,5650.3
907.045,5671.8
907.316,5625.45
907.587,5534.05
907.858,5512.9
908.129,5540.6
908.4,5552.65
908.671,5527.5
908.942,5496.55
909.213,5517.65
909.484,5491.15
909.755,5440.05
910.025,5436.85
910.296,5450.55
910.567,5478.85
910.838,5488.65
911.109,5483.15
911.38,5470.5
911.65,5416.3
911.921,5419.95
912.192,5345.45
912.463,5327.0
912.734,5332.8
913.004,5374.75
913.275,5388.45
913.546,5456.65
913.817,5424.4
914.087,5371.05
914.358,5321.85
914.629,5304.8
914.9,5288.25
915.17,5298.9
915.441,5336.0
915.712,5315.1
915.982,5261.95
916.253,5270.3
916.524,5354.35
916.794,5319.25
917.065,5259.2
917.336,5244.5
917.606,5199.85
917.877,5217.45
918.147,5251.7
918.418,5212.25
918.689,5234.0
918.959,5180.3
919.23,5104.6
919.5,5182.5
919.771,5238.8
920.042,5175.1
920.312,5132.6
920.583,5155.9
920.853,5188.75
921.124,5154.85
921.394,5124.3
921.665,5109.7
921.935,5103.2
922.206,5102.55
922.476,5092.85
922.747,5090.95
923.017,5044.6
923.287,5062.9
923.558,5059.2
923.828,5109.2
924.099,5123.25
924.369,5065.45
924.639,5054.0
924.91,4980.5
925.18,4971.8
925.451,4973.15
925.721,4993.95
925.991,5026.3
926.262,5028.95
926.532,5018.95
926.802,4970.25
927.073,4955.25
927.343,4968.9
927.613,4920.4
927.884,4894.3
928.154,4902.85
928.424,4911.6
928.694,4920.55
928.965,4882.45
929.235,4882.7
929.505,4920.15
929.775,4853.2
930.046,4848.1
930.316,4838.7
930.586,4838.15
930.856,4817.85
931.126,4784.85
931.397,4785.8
931.667,4778.35
931.937,4775.35
932.207,4770.85
932.477,4785.4
932.747,4805.35
933.017,4796.8
933.288,4781.0
933.558,4759.65
933.828,4747.0
934.098,4739.05
934.368,4742.0
934.638,4724.6
934.908,4714.7
935.178,4696.65
935.448,4713.3
935.718,4678.85
935.988,4673.3
936.258,4683.1
936.528,4672.3
936.798,4684.15
937.068,4668.85
937.338,4659.2
937.608,4646.35
937.878,4636.35
938.148,4629.5
938.418,4654.1
938.688,4642.6
938.958,4628.45
939.228,4636.2
939.498,4626.7
939.767,4604.2
940.037,4607.6
940.307,4626.1
940.577,4608.1
940.847,4585.65
941.117,4571.25
941.387,4574.4
941.656,4592.45
941.926,4581.2
942.196,4594.9
942.466,4581.85
942.736,4544.25
943.005,4532.6
943.275,4557.65
943.545,4554.1
943.815,4516.95
944.084,4519.55
944.354,4530.3
944.624,4500.45
944.894,4487.2
945.163,4510.55
945.433,4501.65
945.703,4523.05
945.972,4511.0
946.242,4491.75
946.512,4470.5
946.781,4479.55
947.051,4491.65
947.321,4468.95
947.59,4453.3
947.86,4435.35
948.13,4429.35
948.399,4399.1
948.669,4403.25
948.938,4412.35
949.208,4430.75
949.477,4429.8
949.747,4450.1
950.016,4429.45
950.286,4439.3
950.556,4401.1
950.825,4353.75
951.095,4334.0
951.364,4335.15
951.634,4351.55
951.903,4368.6
952.172,4405.0
952.442,4398.75
952.711,4382.8
952.981,4361.35
953.25,4330.85
953.52,4329.05
953.789,4351.35
954.058,4331.2
954.328,4340.35
954.597,4330.05
954.867,4312.3
955.136,4336.35
955.405,4305.8
955.675,4286.8
955.944,4303.3
956.213,4296.6
956.483,4286.55
956.752,4293.85
957.021,4276.6
957.29,4270.6
957.56,4265.2
957.829,4278.95
958.098,4264.2
958.367,4265.6
958.637,4273.65
958.906,4274.5
959.175,4247.15
959.444,4254.3
959.714,4254.15
959.983,4239.4
960.252,4247.8
960.521,4232.4
960.79,4228.5
961.059,4239.3
961.328,4223.65
961.598,4210.6
961.867,4206.25
962.136,4211.25
962.405,4216.15
962.674,4203.15
962.943,4198.65
963.212,4197.3
963.481,4187.5
963.75,4176.8
964.019,4189.75
964.288,4184.15
964.557,4185.6
964.826,4201.8
965.095,4179.8
965.364,4173.95
965.633,4158.65
965.902,4152.75
966.171,4156.9
966.44,4160.55
966.709,4159.75
966.978,4149.55
967.247,4143.9
967.516,4143.95
967.785,4131.9
968.054,4141.0
968.323,4144.95
968.591,4135.05
968.86,4130.1
969.129,4122.3
969.398,4111.45
969.667,4118.9
969.936,4108.75
970.204,4101.7
970.473,4112.6
970.742,4104.35
971.011,4088.95
971.28,4092.75
971.548,4094.5
971.817,4106.0
972.086,4100.6
972.355,4090.6
972.623,4083.85
972.892,4076.2
973.161,4063.6
973.429,4067.9
973.698,4063.65
973.967,4065.0
974.235,4067.15
974.504,4069.5
974.773,4064.05
975.041,4045.05
975.31,4044.25
975.579,4039.55
975.847,4038.95
976.116,4031.75
976.384,4031.85
976.653,4035.4
976.922,4031.0
977.19,4033.4
977.459,4035.15
977.727,4026.45
977.996,4020.65
978.264,4022.6
978.533,4030.9
978.801,4020.55
979.07,4010.35
979.338,3992.2
979.607,3987.45
979.875,3987.55
980.143,3994.4
980.412,4001.4
980.68,3999.65
980.949,4006.15
981.217,3989.65
981.486,3986.0
981.754,3988.65
982.022,3993.8
982.291,4002.45
982.559,3987.45
982.827,3967.3
983.096,3959.15
983.364,3954.55
983.632,3945.55
983.901,3956.05
984.169,3966.1
984.437,3975.5
984.705,3965.5
984.974,3962.45
985.242,3961.6
985.51,3959.75
985.778,3964.55
986.047,3952.1
986.315,3954.4
986.583,3953.1
986.851,3946.25
987.119,3946.0
987.388,3946.05
987.656,3944.05
987.924,3937.2
988.192,3934.55
988.46,3929.25
988.728,3933.1
988.996,3938.4
989.264,3937.15
989.533,3928.05
989.801,3922.0
990.069,3917.95
990.337,3919.5
990.605,3914.5
990.873,3910.35
991.141,3914.35
991.409,3911.95
991.677,3910.4
991.945,3907.5
992.213,3904.6
992.481,3903.75
992.749,3897.75
993.017,3896.85
993.285,3902.05
993.553,3897.9
993.82,3895.65
994.088,3893.9
994.356,3889.0
994.624,3896.15
994.892,3895.85
995.16,3888.7
995.428,3891.15
995.696,3882.8
995.963,3878.05
996.231,3877.1
996.499,3875.85
996.767,3873.55
997.035,3873.1
997.302,3872.8
997.57,3868.45
997.838,3872.85
998.106,3866.85
998.373,3866.05
998.641,3869.4
998.909,3862.65
999.177,3858.05
999.444,3858.2
999.712,3856.4
999.98,3855.15
1000.25,3846.85
1000.51,3853.9
1000.78,3845.95
1001.05,3843.55
1001.32,3845.8
1001.59,3842.4
1001.85,3846.1
1002.12,3849.7
1002.39,3838.05
1002.66,3830.65
1002.92,3834.65
1003.19,3838.85
1003.46,3833.75
1003.73,3834.6
1003.99,3836.25
1004.26,3826.45
1004.53,3826.35
1004.8,3827.85
1005.06,3831.35
1005.33,3831.25
1005.6,3827.05
1005.87,3817.5
1006.13,3819.55
1006.4,3818.5
1006.67,3814.15
1006.94,3815.45
1007.2,3816.1
1007.47,3821.75
1007.74,3821.45
1008.0,3825.7
1008.27,3823.35
1008.54,3815.7
1008.81,3815.35
1009.07,3816.65
1009.34,3815.4
1009.61,3816.55
1009.88,3822.4
1010.14,3818.4
1010.41,3815.7
1010.68,3814.3
1010.95,3813.0
1011.21,3816.0
1011.48,3817.55
1011.75,3821.75
1012.01,3821.8
1012.28,3818.5
1012.55,3824.45
1012.82,3823.95
1013.08,3824.2
1013.35,3816.6
1013.62,3820.45
1013.88,3817.55
1014.15,3825.05
1014.42,3822.35
1014.69,3812.6
1014.95,3809.75
1015.22,3809.5
1015.49,3809.2
1015.75,3800.0
1016.02,3801.4
1016.29,3803.8
1016.55,3794.65
1016.82,3790.0
1017.09,3793.95
1017.36,3795.25
1017.62,3791.9
1017.89,3790.55
1018.16,3790.95
1018.42,3788.2
1018.69,3790.5
1018.96,3786.0
1019.22,3785.1
1019.49,3783.8
1019.76,3782.5
1020.02,3782.95
1020.29,3781.5
1020.56,3779.25
1020.83,3775.4
1021.09,3773.6
1021.36,3772.55
1021.63,3767.6
1021.89,3766.65
1022.16,3767.35
1022.43,3769.15
1022.69,3766.6
1022.96,3767.45
1023.23,3764.25
1023.49,3762.95
1023.76,3762.6
1024.03,3760.6
1024.29,3760.05
1024.56,3758.2
1024.83,3753.25
1025.09,3755.5
1025.36,3753.55
1025.63,3752.05
1025.89,3757.55
1026.16,3754.9
1026.43,3754.55
1026.69,3749.45
1026.96,3747.35
1027.23,3749.85
1027.49,3747.15
1027.76,3750.4
1028.03,3746.15
1028.29,3747.85
1028.56,3744.35
1028.83,3746.1
1029.09,3742.3
1029.36,3741.6
1029.62,3743.45
1029.89,3741.15
1030.16,3741.0
1030.42,3738.25
1030.69,3738.05
1030.96,3739.05
1031.22,3737.25
1031.49,3735.55
1031.76,3739.6
1032.02,3740.3
1032.29,3738.15
1032.56,3740.25
1032.82,3739.55
1033.09,3737.8
1033.35,3736.5
1033.62,3738.55
1033.89,3735.9
1034.15,3735.35
1034.42,3733.0
1034.69,3733.8
1034.95,3734.95
1035.22,3734.65
1035.48,3730.6
1035.75,3731.9
1036.02,3731.7
1036.28,3731.8
1036.55,3731.0
1036.81,3730.2
1037.08,3731.7
1037.35,3729.75
1037.61,3729.6
1037.88,3730.6
1038.15,3728.6
1038.41,3725.75
1038.68,3727.2
1038.94,3730.35
1039.21,3728.65
1039.48,3728.25
1039.74,3729.7
1040.01,3727.4
1040.27,3727.2
1040.54,3727.65
1040.81,3726.0
1041.07,3726.05
1041.34,3724.7
1041.6,3724.75
1041.87,3724.0
1042.14,3721.6
1042.4,3723.2
1042.67,3720.15
1042.93,3722.1
1043.2,3721.45
1043.47,3722.1
1043.73,3722.35
1044.0,3721.4
1044.26,3724.85
1044.53,3722.6
1044.79,3718.9
1045.06,3719.85
1045.33,3721.15
1045.59,3719.1
1045.86,3719.5
1046.12,3720.45
1046.39,3718.4
1046.65,3719.1
1046.92,3719.15
1047.19,3718.1
1047.45,3718.15
1047.72,3717.15
1047.98,3716.55
1048.25,3718.6
1048.51,3715.4
1048.78,3715.9
1049.05,3716.2
1049.31,3714.8
1049.58,3716.0
1049.84,3716.9
1050.11,3715.65
1050.37,3716.4
1050.64,3712.75
1050.91,3714.7
1051.17,3714.7
1051.44,3715.45
1051.7,3714.75
1051.97,3715.7
1052.23,3712.6
1052.5,3714.2
1052.76,3711.9
1053.03,3712.9
1053.29,3715.0
1053.56,3714.55
1053.83,3715.85
1054.09,3713.75
1054.36,3714.4
1054.62,3713.05
1054.89,3712.9
1055.15,3712.8
1055.42,3713.9
1055.68,3713.7
1055.95,3713.95
1056.21,3711.3
1056.48,3712.7
1056.74,3712.5
1057.01,3712.1
1057.27,3711.5
1057.54,3711.15
1057.81,3712.15
1058.07,3710.45
1058.34,3712.55
1058.6,3712.35
1058.87,3712.3
1059.13,3711.7
1059.4,3711.55
1059.66,3711.45
1059.93,3711.8
1060.19,3712.3
1060.46,3710.45
1060.72,3711.35
1060.99,3710.35
1061.25,3711.1
1061.52,3709.15
1061.78,3709.7
1062.05,3712.4
1062.31,3710.1
1062.58,3710.45
1062.84,3709.3
1063.11,3709.45
1063.37,3711.85
1063.64,3710.75
1063.9,3710.8
1064.17,3709.15
1064.43,3709.8
1064.7,3708.35
1064.96,3709.5
1065.23,3708.25
1065.49,3707.5
1065.76,3707.35
1066.02,3708.65
1066.29,3708.1
1066.55,3708.95
1066.82,3708.0
1067.08,3708.1
1067.35,3708.65
1067.61,3706.35
1067.88,3706.6
