nm,Intensity
791.588,5028.0
791.862,5028.32
792.136,5044.16
792.411,5035.07
792.685,5034.68
792.959,5040.09
793.233,5052.19
793.507,5054.59
793.781,5046.21
794.056,5050.96
794.33,5059.1
794.604,5069.36
794.878,5081.74
795.152,5068.69
795.426,5053.93
795.701,5060.9
795.975,5099.74
796.249,5084.3
796.523,5071.47
796.797,5078.25
797.071,5078.22
797.345,5091.66
797.619,5099.27
797.894,5092.42
798.168,5082.14
798.442,5112.48
798.716,5125.03
798.99,5103.41
799.264,5107.94
799.538,5094.2
799.812,5106.93
800.086,5128.19
800.36,5118.1
800.634,5116.75
800.908,5129.15
801.182,5128.76
801.456,5119.43
801.73,5100.49
802.004,5126.25
802.278,5131.4
802.552,5131.91
802.826,5115.85
803.1,5125.28
803.374,5124.01
803.648,5133.87
803.922,5150.26
804.196,5129.52
804.47,5129.37
804.744,5108.64
805.018,5138.58
805.292,5134.89
805.566,5142.23
805.84,5123.91
806.114,5129.15
806.388,5133.57
806.662,5139.27
806.936,5127.29
807.209,5130.82
807.483,5130.16
807.757,5132.35
808.031,5129.27
808.305,5148.01
808.579,5155.22
808.853,5126.07
809.127,5132.88
809.4,5149.76
809.674,5124.0
809.948,5136.96
810.222,5124.0
810.496,5133.3
810.77,5125.03
811.043,5115.46
811.317,5141.26
811.591,5120.65
811.865,5142.09
812.139,5132.16
812.412,5123.4
812.686,5132.79
812.96,5123.52
813.234,5114.69
813.507,5130.38
813.781,5122.92
814.055,5135.49
814.329,5130.45
814.602,5100.47
814.876,5102.64
815.15,5107.35
815.424,5093.17
815.697,5094.77
815.971,5114.7
816.245,5115.46
816.518,5107.23
816.792,5104.21
817.066,5080.8
817.34,5079.44
817.613,5107.21
817.887,5107.34
818.161,5076.04
818.434,5088.62
818.708,5072.62
818.981,5090.81
819.255,5086.74
819.529,5088.35
819.802,5080.1
820.076,5074.13
820.35,5099.52
820.623,5082.07
820.897,5085.51
821.17,5068.93
821.444,5072.69
821.718,5073.84
821.991,5073.9
822.265,5079.16
822.538,5065.46
822.812,5052.58
823.085,5060.33
823.359,5046.88
823.632,5049.46
823.906,5067.96
824.18,5081.19
824.453,5074.83
824.727,5053.87
825.0,5042.96
825.274,5047.06
825.547,5042.75
825.821,5067.47
826.094,5050.99
826.367,5025.44
826.641,5019.94
826.914,5038.7
827.188,5046.56
827.461,5031.02
827.735,5015.98
828.008,5036.72
828.282,5022.99
828.555,5017.06
828.828,5009.81
829.102,5029.91
829.375,5017.96
829.649,5035.84
829.922,5022.89
830.195,4996.83
830.469,5014.73
830.742,5031.79
831.016,5004.6
831.289,4987.57
831.562,4990.28
831.836,5022.69
832.109,5013.02
832.382,4984.2
832.656,4991.23
832.929,4991.61
833.202,4990.27
833.476,4983.34
833.749,4962.93
834.022,4966.91
834.295,4984.52
834.569,4981.1
834.842,4994.58
835.115,4986.89
835.388,4987.86
835.662,4961.71
835.935,4964.26
836.208,4960.35
836.481,4952.66
836.755,4965.74
837.028,4960.19
837.301,4963.95
837.574,4982.9
837.848,4963.12
838.121,4953.86
838.394,4948.72
838.667,4959.3
838.94,4966.96
839.213,4945.74
839.487,4940.39
839.76,4916.47
840.033,4909.54
840.306,4930.16
840.579,4947.01
840.852,4948.84
841.125,4929.76
841.399,4926.5
841.672,4909.17
841.945,4917.76
842.218,4935.23
842.491,4935.43
842.764,4936.29
843.037,4935.1
843.31,4917.1
843.583,4912.52
843.856,4904.53
844.129,4915.53
844.402,4920.64
844.675,4919.92
844.948,4892.61
845.221,4886.21
845.495,4893.96
845.768,4894.51
846.041,4889.54
846.314,4888.14
846.586,4886.99
846.859,4889.43
847.132,4908.31
847.405,4912.79
847.678,4888.28
847.951,4867.55
848.224,4870.39
848.497,4877.15
848.77,4881.71
849.043,4870.7
849.316,4872.64
849.589,4873.65
849.862,4866.53
850.135,4867.53
850.408,4863.2
850.681,4854.33
850.953,4843.23
851.226,4855.52
851.499,4861.52
851.772,4874.85
852.045,4856.32
852.318,4838.87
852.591,4858.76
852.863,4860.71
853.136,4839.73
853.409,4844.1
853.682,4834.86
853.955,4838.3
854.227,4840.55
854.5,4838.04
854.773,4839.42
855.046,4839.06
855.318,4829.53
855.591,4846.35
855.864,4840.39
856.137,4854.91
856.409,4851.03
856.682,4830.96
856.955,4856.44
857.228,4840.11
857.5,4842.19
857.773,4850.04
858.046,4851.87
858.318,4842.13
858.591,4828.7
858.864,4827.68
859.137,4808.03
859.409,4814.46
859.682,4804.37
859.954,4822.08
860.227,4836.32
860.5,4844.41
860.772,4822.64
861.045,4818.6
861.318,4818.8
861.59,4819.62
861.863,4811.49
862.135,4788.35
862.408,4774.07
862.681,4786.61
862.953,4805.82
863.226,4813.18
863.498,4799.8
863.771,4789.4
864.043,4785.18
864.316,4773.23
864.588,4795.31
864.861,4807.9
865.133,4799.61
865.406,4787.28
865.678,4769.86
865.951,4758.9
866.223,4767.86
866.496,4770.71
866.768,4758.99
867.041,4787.98
867.313,4784.07
867.586,4774.55
867.858,4767.6
868.131,4754.89
868.403,4731.96
868.675,4731.03
868.948,4742.06
869.22,4762.65
869.493,4773.46
869.765,4786.85
870.037,4780.43
870.31,4772.61
870.582,4765.26
870.854,4766.48
871.127,4762.19
871.399,4750.66
871.672,4742.55
871.944,4736.72
872.216,4738.09
872.488,4761.61
872.761,4776.11
873.033,4769.39
873.305,4788.62
873.578,4778.43
873.85,4771.98
874.122,4760.98
874.394,4755.45
874.667,4743.11
874.939,4736.01
875.211,4743.35
875.483,4728.06
875.756,4728.1
876.028,4726.65
876.3,4736.62
876.572,4730.41
876.845,4721.51
877.117,4719.91
877.389,4723.19
877.661,4717.83
877.933,4711.94
878.205,4716.72
878.478,4704.87
878.75,4696.81
879.022,4686.65
879.294,4681.29
879.566,4684.89
879.838,4681.85
880.11,4691.07
880.382,4695.48
880.654,4696.5
880.927,4687.33
881.199,4664.35
881.471,4678.43
881.743,4682.19
882.015,4683.33
882.287,4687.11
882.559,4682.1
882.831,4676.65
883.103,4679.39
883.375,4682.89
883.647,4686.37
883.919,4698.65
884.191,4710.24
884.463,4695.51
884.735,4694.21
885.007,4696.35
885.279,4693.7
885.551,4683.66
885.823,4692.3
886.095,4692.48
886.367,4675.25
886.639,4653.28
886.91,4659.41
887.182,4660.94
887.454,4659.75
887.726,4647.31
887.998,4614.52
888.27,4604.94
888.542,4623.51
888.814,4617.72
889.085,4620.43
889.357,4628.99
889.629,4625.4
889.901,4612.62
890.173,4612.4
890.445,4604.23
890.716,4598.0
890.988,4591.03
891.26,4592.38
891.532,4594.13
891.804,4589.4
892.075,4603.56
892.347,4596.53
892.619,4581.82
892.891,4579.62
893.162,4582.76
893.434,4581.94
893.706,4564.84
893.978,4557.42
894.249,4552.25
894.521,4555.17
894.793,4554.82
895.064,4559.44
895.336,4547.0
895.608,4528.78
895.879,4541.8
896.151,4543.34
896.423,4534.47
896.694,4550.87
896.966,4541.32
897.237,4516.13
897.509,4516.0
897.781,4518.36
898.052,4515.74
898.324,4490.8
898.595,4507.67
898.867,4508.42
899.139,4488.28
899.41,4499.16
899.682,4499.81
899.953,4497.09
900.225,4496.54
900.496,4494.45
900.768,4490.7
901.039,4499.0
901.311,4485.74
901.582,4467.24
901.854,4467.42
902.125,4477.73
902.397,4467.67
902.668,4458.85
902.94,4457.54
903.211,4454.84
903.482,4473.97
903.754,4475.4
904.025,4475.97
904.297,4461.98
904.568,4472.25
904.839,4461.5
905.111,4440.26
905.382,4436.45
905.654,4434.19
905.925,4426.19
906.196,4415.59
906.468,4425.68
906.739,4435.16
907.01,4433.37
907.282,4427.83
907.553,4418.5
907.824,4414.88
908.096,4410.84
908.367,4403.64
908.638,4404.68
908.909,4391.86
909.181,4383.5
909.452,4374.64
909.723,4386.89
909.994,4392.86
910.266,4385.14
910.537,4388.84
910.808,4392.78
911.079,4399.24
911.35,4386.15
911.622,4370.66
911.893,4378.72
912.164,4375.37
912.435,4370.27
912.706,4363.74
912.977,4354.47
913.249,4356.45
913.52,4355.22
913.791,4341.27
914.062,4345.51
914.333,4346.44
914.604,4343.07
914.875,4335.67
915.146,4341.81
915.417,4331.24
915.688,4324.05
915.959,4316.02
916.231,4321.69
916.502,4321.53
916.773,4318.86
917.044,4326.92
917.315,4331.12
917.586,4313.85
917.857,4307.61
918.128,4302.07
918.399,4300.89
918.67,4294.58
918.941,4284.2
919.211,4295.9
919.482,4295.99
919.753,4288.38
920.024,4279.25
920.295,4275.62
920.566,4266.37
920.837,4273.43
921.108,4279.01
921.379,4280.81
921.65,4276.49
921.921,4260.6
922.191,4254.81
922.462,4249.69
922.733,4245.53
923.004,4257.27
923.275,4250.3
923.546,4248.76
923.816,4242.82
924.087,4245.0
924.358,4230.98
924.629,4227.81
924.9,4234.77
925.17,4230.29
925.441,4222.78
925.712,4224.8
925.983,4214.73
926.253,4206.19
926.524,4209.63
926.795,4210.89
927.065,4211.02
927.336,4207.52
927.607,4194.44
927.877,4184.75
928.148,4195.69
928.419,4191.64
928.689,4192.22
928.96,4186.34
929.231,4183.93
929.501,4184.35
929.772,4187.98
930.043,4173.53
930.313,4161.28
930.584,4157.35
930.854,4156.04
931.125,4153.58
931.396,4159.42
931.666,4161.07
931.937,4150.9
932.207,4141.84
932.478,4144.91
932.748,4146.72
933.019,4141.53
933.289,4137.41
933.56,4129.1
933.83,4134.81
934.101,4136.0
934.371,4122.65
934.642,4117.49
934.912,4112.72
935.183,4117.59
935.453,4116.88
935.723,4116.06
935.994,4119.62
936.264,4110.97
936.535,4105.57
936.805,4100.36
937.075,4092.22
937.346,4094.97
937.616,4092.07
937.886,4091.36
938.157,4092.76
938.427,4091.57
938.697,4088.17
938.968,4088.53
939.238,4089.27
939.508,4086.96
939.779,4078.76
940.049,4074.28
940.319,4076.34
940.59,4074.46
940.86,4067.27
941.13,4068.07
941.4,4072.85
941.671,4069.47
941.941,4060.63
942.211,4055.09
942.481,4048.61
942.751,4047.96
943.022,4046.09
943.292,4045.22
943.562,4037.57
943.832,4038.08
944.102,4041.69
944.372,4038.29
944.642,4037.65
944.913,4039.15
945.183,4039.68
945.453,4035.26
945.723,4031.52
945.993,4032.71
946.263,4030.45
946.533,4025.73
946.803,4020.34
947.073,4017.42
947.343,4014.69
947.613,4016.26
947.883,4016.71
948.153,4008.96
948.423,4004.92
948.693,4010.65
948.963,4012.48
949.233,4008.05
949.503,4004.57
949.773,4003.13
950.043,4000.26
950.313,3994.51
950.583,3996.04
950.853,3999.69
951.123,3992.65
951.393,3989.22
951.663,3990.98
951.933,3989.88
952.202,3992.23
952.472,3987.85
952.742,3982.93
953.012,3981.17
953.282,3974.92
953.552,3970.57
953.822,3971.68
954.091,3972.82
954.361,3974.47
954.631,3967.93
954.901,3965.87
955.17,3961.31
955.44,3963.42
955.71,3965.52
955.98,3962.45
956.25,3961.43
956.519,3955.79
956.789,3954.74
957.059,3951.06
957.328,3950.07
957.598,3952.32
957.868,3950.43
958.137,3949.68
958.407,3948.42
958.677,3944.4
958.946,3939.65
959.216,3938.4
959.486,3941.23
959.755,3940.58
960.025,3940.98
960.294,3934.49
960.564,3936.64
960.834,3935.2
961.103,3930.52
961.373,3932.79
961.642,3933.01
961.912,3931.72
962.181,3922.42
962.451,3920.64
962.72,3924.04
962.99,3926.81
963.259,3924.22
963.529,3922.28
963.798,3917.58
964.068,3913.32
964.337,3912.7
964.607,3912.19
964.876,3913.64
965.146,3911.7
965.415,3912.02
965.684,3907.99
965.954,3908.23
966.223,3906.93
966.493,3904.28
966.762,3900.19
967.031,3898.29
967.301,3903.45
967.57,3905.52
967.839,3903.49
968.109,3902.84
968.378,3897.88
968.647,3896.32
968.917,3892.57
969.186,3892.39
969.455,3891.8
969.724,3893.63
969.994,3891.99
970.263,3891.28
970.532,3888.59
970.801,3887.34
971.071,3885.34
971.34,3884.89
971.609,3883.78
971.878,3881.21
972.147,3879.18
972.417,3879.44
972.686,3878.29
972.955,3877.02
973.224,3874.88
973.493,3874.29
973.762,3870.85
974.031,3870.16
974.3,3871.07
974.57,3870.89
974.839,3869.5
975.108,3868.42
975.377,3867.64
975.646,3864.2
975.915,3864.16
976.184,3865.2
976.453,3866.19
976.722,3864.32
976.991,3860.1
977.26,3860.73
977.529,3860.11
977.798,3859.93
978.067,3856.7
978.336,3854.08
978.605,3851.64
978.874,3853.92
979.143,3854.94
979.412,3854.57
979.68,3852.03
979.949,3848.65
980.218,3846.23
980.487,3848.65
980.756,3846.53
981.025,3845.48
981.294,3848.55
981.563,3844.45
981.831,3845.46
982.1,3846.22
982.369,3843.14
982.638,3843.78
982.907,3841.52
983.175,3838.45
983.444,3838.15
983.713,3837.72
983.982,3837.0
984.25,3838.01
984.519,3839.28
984.788,3839.53
985.057,3835.64
985.325,3833.74
985.594,3833.65
985.863,3832.16
986.131,3831.67
986.4,3832.33
986.669,3831.8
986.937,3829.47
987.206,3828.41
987.475,3825.76
987.743,3826.37
988.012,3824.54
988.28,3824.02
988.549,3827.05
988.817,3825.18
989.086,3822.87
989.355,3818.98
989.623,3819.6
989.892,3818.27
990.16,3820.14
990.429,3819.44
990.697,3818.83
990.966,3820.03
991.234,3818.96
991.503,3817.31
991.771,3816.98
992.04,3814.61
992.308,3815.33
992.576,3813.65
992.845,3815.09
993.113,3814.88
993.382,3816.29
993.65,3811.83
993.918,3811.61
994.187,3810.64
994.455,3808.86
994.723,3808.51
994.992,3809.17
995.26,3809.08
995.528,3806.63
995.797,3805.8
996.065,3804.96
996.333,3804.81
996.602,3804.22
996.87,3806.69
997.138,3805.82
997.406,3805.0
997.675,3803.89
997.943,3799.76
998.211,3799.75
998.479,3800.13
998.747,3800.3
999.016,3799.05
999.284,3798.59
999.552,3798.29
999.82,3799.14
1000.09,3797.98
1000.36,3795.25
1000.62,3792.58
1000.89,3792.43
1001.16,3791.87
1001.43,3792.25
1001.7,3791.66
1001.97,3790.03
1002.23,3789.74
1002.5,3790.11
1002.77,3788.83
1003.04,3788.11
1003.31,3785.61
1003.57,3787.23
1003.84,3786.96
1004.11,3787.02
1004.38,3786.52
1004.65,3785.17
1004.91,3784.05
1005.18,3785.69
1005.45,3783.72
1005.72,3783.31
1005.98,3783.14
1006.25,3781.48
1006.52,3783.03
1006.79,3784.66
1007.06,3783.51
1007.32,3782.21
1007.59,3781.0
1007.86,3779.73
1008.13,3780.65
1008.4,3781.6
1008.66,3783.41
1008.93,3783.76
1009.2,3785.39
1009.47,3786.27
1009.73,3786.33
1010.0,3788.76
1010.27,3790.3
1010.54,3792.75
1010.81,3794.61
1011.07,3792.24
1011.34,3793.26
1011.61,3793.77
1011.88,3794.46
1012.14,3793.97
1012.41,3793.35
1012.68,3793.28
1012.95,3790.68
1013.21,3791.42
1013.48,3790.02
1013.75,3790.8
1014.02,3792.11
1014.29,3788.52
1014.55,3787.94
1014.82,3787.23
1015.09,3786.5
1015.36,3785.22
1015.62,3785.36
1015.89,3784.0
1016.16,3781.5
1016.43,3779.63
1016.69,3777.7
1016.96,3776.47
1017.23,3774.85
1017.5,3774.44
1017.76,3773.86
1018.03,3774.21
1018.3,3773.8
1018.57,3771.22
1018.83,3769.9
1019.1,3767.97
1019.37,3768.41
1019.63,3767.5
1019.9,3767.31
1020.17,3766.43
1020.44,3765.08
1020.7,3763.67
1020.97,3763.37
1021.24,3763.09
1021.51,3762.32
1021.77,3760.57
1022.04,3760.02
1022.31,3760.27
1022.58,3758.75
1022.84,3757.51
1023.11,3757.56
1023.38,3757.87
1023.64,3756.81
1023.91,3756.3
1024.18,3755.37
1024.45,3756.12
1024.71,3754.18
1024.98,3754.19
1025.25,3754.38
1025.51,3753.97
1025.78,3753.38
1026.05,3752.91
1026.32,3753.24
1026.58,3753.66
1026.85,3751.83
1027.12,3752.18
1027.38,3751.95
1027.65,3751.88
1027.92,3751.04
1028.19,3750.99
1028.45,3751.05
1028.72,3750.36
1028.99,3749.45
1029.25,3750.15
1029.52,3747.74
1029.79,3748.53
1030.05,3748.23
1030.32,3747.75
1030.59,3748.35
1030.85,3748.42
1031.12,3748.53
1031.39,3748.35
1031.66,3747.64
1031.92,3747.92
1032.19,3747.74
1032.46,3746.94
1032.72,3747.23
1032.99,3747.24
1033.26,3746.16
1033.52,3746.96
1033.79,3746.65
1034.06,3746.88
1034.32,3745.22
1034.59,3745.38
1034.86,3745.0
1035.12,3745.47
1035.39,3744.36
1035.66,3745.43
1035.92,3744.36
1036.19,3744.85
1036.46,3744.41
1036.72,3743.17
1036.99,3743.25
1037.26,3742.4
1037.52,3743.13
1037.79,3743.52
1038.06,3743.21
1038.32,3742.23
1038.59,3742.03
1038.86,3742.14
1039.12,3742.42
1039.39,3742.35
1039.66,3742.72
1039.92,3742.11
1040.19,3741.61
1040.46,3741.57
1040.72,3741.21
1040.99,3742.12
1041.26,3740.62
1041.52,3740.46
1041.79,3740.78
1042.06,3740.43
1042.32,3740.16
1042.59,3740.24
1042.86,3740.52
1043.12,3740.61
1043.39,3739.82
1043.65,3739.45
1043.92,3739.77
1044.19,3739.0
1044.45,3739.54
1044.72,3738.83
1044.99,3739.04
1045.25,3738.88
1045.52,3738.28
1045.79,3738.51
1046.05,3738.61
1046.32,3738.18
1046.58,3737.78
1046.85,3738.52
1047.12,3738.17
1047.38,3739.21
1047.65,3738.65
1047.92,3737.66
1048.18,3737.64
1048.45,3737.99
1048.71,3737.93
1048.98,3737.85
1049.25,3736.87
1049.51,3737.58
1049.78,3737.02
1050.04,3737.3
1050.31,3737.47
1050.58,3737.14
1050.84,3736.55
1051.11,3737.34
1051.37,3737.0
1051.64,3736.82
1051.91,3737.31
1052.17,3737.48
1052.44,3736.56
1052.7,3736.86
1052.97,3736.76
1053.24,3736.47
1053.5,3736.65
1053.77,3735.54
1054.03,3736.62
1054.3,3736.04
1054.57,3735.7
1054.83,3736.21
1055.1,3735.99
1055.36,3736.51
1055.63,3736.79
1055.9,3735.44
1056.16,3736.08
1056.43,3735.35
1056.69,3734.5
1056.96,3735.59
1057.23,3735.54
1057.49,3735.3
1057.76,3735.76
1058.02,3735.48
1058.29,3735.19
1058.55,3734.77
1058.82,3735.19
1059.09,3735.22
1059.35,3734.86
1059.62,3734.92
1059.88,3735.39
1060.15,3734.74
1060.41,3735.19
1060.68,3735.11
1060.95,3735.04
1061.21,3735.07
1061.48,3734.75
1061.74,3734.48
1062.01,3734.41
1062.27,3734.15
1062.54,3733.82
1062.8,3734.46
1063.07,3733.62
1063.34,3734.24
1063.6,3734.41
1063.87,3733.53
1064.13,3733.53
1064.4,3734.35
1064.66,3734.0
1064.93,3733.86
1065.19,3733.7
1065.46,3734.64
1065.73,3733.5
1065.99,3733.28
1066.26,3733.65
1066.52,3733.39
1066.79,3733.33
1067.05,3733.95
1067.32,3733.38
1067.58,3733.56
1067.85,3732.81
1068.11,3732.82
