nm,Intensity
528.626,1870.9
528.711,1871.13
528.795,1870.03
528.879,1871.07
528.963,1871.13
529.048,1871.07
529.132,1871.27
529.216,1871.27
529.3,1871.1
529.385,1871.4
529.469,1871.83
529.553,1870.17
529.637,1869.97
529.721,1871.5
529.806,1870.8
529.89,1869.77
529.974,1871.23
530.058,1871.1
530.143,1870.8
530.227,1870.3
530.311,1870.8
530.395,1871.6
530.48,1871.6
530.564,1871.6
530.648,1872.2
530.732,1871.27
530.816,1870.3
530.901,1871.63
530.985,1871.67
531.069,1873.07
531.153,1871.93
531.237,1873.9
531.322,1872.73
531.406,1874.97
531.49,1876.27
531.574,1879.6
531.658,1890.4
531.743,1935.57
531.827,2115.17
531.911,2555.57
531.995,3072.57
532.079,3316.7
532.164,3099.53
532.248,2626.63
532.332,2091.3
532.416,1898.17
532.5,1875.3
532.585,1875.13
532.669,1873.9
532.753,1873.63
532.837,1873.4
532.921,1873.73
533.006,1873.9
533.09,1873.5
533.174,1873.9
533.258,1875.87
533.342,1878.87
533.426,1887.5
533.511,1916.9
533.595,2006.13
533.679,2198.77
533.763,2502.8
533.847,2846.07
533.931,3165.4
534.016,3390.6
534.1,3526.7
534.184,3593.27
534.268,3599.0
534.352,3600.1
534.436,3619.67
534.521,3611.9
534.605,3616.0
534.689,3671.0
534.773,3724.63
534.857,3762.2
534.941,3791.0
535.025,3812.53
535.11,3809.17
535.194,3802.37
535.278,3818.97
535.362,3857.67
535.446,3909.83
535.53,3887.0
535.614,3856.73
535.699,3843.8
535.783,3861.8
535.867,3863.97
535.951,3856.03
536.035,3882.67
536.119,3932.33
536.203,3888.03
536.287,3860.8
536.372,3858.03
536.456,3867.03
536.54,3907.97
536.624,3914.53
536.708,3909.0
536.792,3913.97
536.876,3946.0
536.96,3922.8
537.044,3954.67
537.129,3984.13
537.213,3982.8
537.297,3967.67
537.381,4002.7
537.465,4021.7
537.549,4001.63
537.633,4025.07
537.717,4045.4
537.801,4072.8
537.885,4125.83
537.97,4117.43
538.054,4105.33
538.138,4046.9
538.222,4046.13
538.306,4093.53
538.39,4081.27
538.474,4048.67
538.558,4074.67
538.642,4122.17
538.726,4185.37
538.81,4097.17
538.894,4083.53
538.979,4084.2
539.063,4130.8
539.147,4132.83
539.231,4152.27
539.315,4195.9
539.399,4211.07
539.483,4193.07
539.567,4183.6
539.651,4199.97
539.735,4220.0
539.819,4245.37
539.903,4264.2
539.987,4257.5
540.071,4260.83
540.155,4249.77
540.239,4256.53
540.324,4282.23
540.408,4267.77
540.492,4333.63
540.576,4336.33
540.66,4324.43
540.744,4384.4
540.828,4423.57
540.912,4413.2
540.996,4385.7
541.08,4390.5
541.164,4387.1
541.248,4388.73
541.332,4398.07
541.416,4401.83
541.5,4398.33
541.584,4463.73
541.668,4474.53
541.752,4519.2
541.836,4570.77
541.92,4533.4
542.004,4541.4
542.088,4518.5
542.172,4563.7
542.256,4629.73
542.34,4646.2
542.424,4676.83
542.508,4639.37
542.592,4637.13
542.676,4611.17
542.76,4653.77
542.844,4668.37
542.928,4662.1
543.012,4644.93
543.096,4654.7
543.18,4660.33
543.264,4719.6
543.348,4786.17
543.432,4771.8
543.516,4765.87
543.6,4772.8
543.684,4806.83
543.768,4738.43
543.852,4726.23
543.936,4754.4
544.02,4785.47
544.104,4832.83
544.188,4820.17
544.272,4798.23
544.356,4820.3
544.44,4869.73
544.524,4895.6
544.608,4816.1
544.692,4806.07
544.776,4811.3
544.86,4908.57
544.944,4950.27
545.028,5022.47
545.112,4964.2
545.196,4952.63
545.28,5002.97
545.364,4953.43
545.448,4963.5
545.532,4960.0
545.616,4998.87
545.7,5032.57
545.784,5097.67
545.867,5049.7
545.951,5048.27
546.035,5023.53
546.119,5027.93
546.203,5100.53
546.287,5117.8
546.371,5089.17
546.455,5049.67
546.539,5041.4
546.623,5064.9
546.707,5091.33
546.791,5162.03
546.875,5186.23
546.959,5245.97
547.043,5206.33
547.127,5189.87
547.21,5169.63
547.294,5227.5
547.378,5331.0
547.462,5405.67
547.546,5412.4
547.63,5420.73
547.714,5419.37
547.798,5406.9
547.882,5368.63
547.966,5382.17
548.05,5346.87
548.134,5349.57
548.217,5353.5
548.301,5344.7
548.385,5318.27
548.469,5285.93
548.553,5311.0
548.637,5328.7
548.721,5417.3
548.805,5485.17
548.889,5484.97
548.972,5416.9
549.056,5398.63
549.14,5370.1
549.224,5396.43
549.308,5416.03
549.392,5370.23
549.476,5392.17
549.56,5355.8
549.644,5389.07
549.727,5351.27
549.811,5327.4
549.895,5318.7
549.979,5383.67
550.063,5415.07
550.147,5398.57
550.231,5351.83
550.315,5371.53
550.398,5404.23
550.482,5442.67
550.566,5376.23
550.65,5401.8
550.734,5456.33
550.818,5472.2
550.902,5468.23
550.985,5428.2
551.069,5512.8
551.153,5616.37
551.237,5616.77
551.321,5563.87
551.405,5579.77
551.488,5660.97
551.572,5627.9
551.656,5622.13
551.74,5603.13
551.824,5594.9
551.908,5588.5
551.991,5643.17
552.075,5686.1
552.159,5724.67
552.243,5747.2
552.327,5690.77
552.411,5643.37
552.494,5615.97
552.578,5643.7
552.662,5660.7
552.746,5681.8
552.83,5683.53
552.914,5756.2
552.997,5724.57
553.081,5721.83
553.165,5784.03
553.249,5742.6
553.333,5653.5
553.416,5667.2
553.5,5767.87
553.584,5818.97
553.668,5706.47
553.752,5805.37
553.835,5809.7
553.919,5811.5
554.003,5809.63
554.087,5877.27
554.171,5879.1
554.254,5826.13
554.338,5821.5
554.422,5972.83
554.506,5942.07
554.589,5955.17
554.673,5880.9
554.757,5846.1
554.841,5912.8
554.925,5948.07
555.008,5969.8
555.092,5997.47
555.176,5973.17
555.26,5967.37
555.343,5963.0
555.427,5945.8
555.511,5967.1
555.595,6049.13
555.679,6111.07
555.762,6065.5
555.846,6100.4
555.93,6073.53
556.014,6039.27
556.097,6060.23
556.181,6080.7
556.265,6083.07
556.349,6108.73
556.432,6124.83
556.516,6182.0
556.6,6090.07
556.684,6146.07
556.767,6266.4
556.851,6176.73
556.935,6191.73
557.018,6219.6
557.102,6196.13
557.186,6284.63
557.27,6308.9
557.353,6287.87
557.437,6317.37
557.521,6401.93
557.605,6508.8
557.688,6527.57
557.772,6521.17
557.856,6449.07
557.939,6434.3
558.023,6395.03
558.107,6469.8
558.191,6457.8
558.274,6383.67
558.358,6311.5
558.442,6292.87
558.525,6360.5
558.609,6452.27
558.693,6437.23
558.776,6440.17
558.86,6378.47
558.944,6354.3
559.028,6394.8
559.111,6450.43
559.195,6445.57
559.279,6476.27
559.362,6497.67
559.446,6423.23
559.53,6443.83
559.613,6461.73
559.697,6494.4
559.781,6498.03
559.864,6464.93
559.948,6471.07
560.032,6496.03
560.115,6482.37
560.199,6532.43
560.283,6512.1
560.366,6573.37
560.45,6561.23
560.534,6574.63
560.617,6541.53
560.701,6622.83
560.785,6598.33
560.868,6571.67
560.952,6583.93
561.036,6668.27
561.119,6769.8
561.203,6682.93
561.287,6738.4
561.37,6739.53
561.454,6764.83
561.538,6751.17
561.621,6756.57
561.705,6687.57
561.789,6736.57
561.872,6791.03
561.956,6850.2
562.039,6867.7
562.123,6774.57
562.207,6754.57
562.29,6799.43
562.374,6779.6
562.458,6852.97
562.541,6879.97
562.625,6820.03
562.708,6920.33
562.792,6924.83
562.876,6993.2
562.959,7020.77
563.043,7015.5
563.127,7008.23
563.21,7010.7
563.294,7006.23
563.377,7065.0
563.461,6979.57
563.545,6880.2
563.628,6835.43
563.712,6971.9
563.795,7000.33
563.879,6941.7
563.963,6986.97
564.046,7074.63
564.13,7051.1
564.213,7118.37
564.297,7158.2
564.38,7186.43
564.464,7218.0
564.548,7182.5
564.631,7074.23
564.715,7203.9
564.798,7328.47
564.882,7403.67
564.966,7440.57
565.049,7450.67
565.133,7313.97
565.216,7254.43
565.3,7310.3
565.383,7372.63
565.467,7288.5
565.551,7248.63
565.634,7313.17
565.718,7276.13
565.801,7256.63
565.885,7335.87
565.968,7293.37
566.052,7279.2
566.135,7227.77
566.219,7168.3
566.302,7224.47
566.386,7224.5
566.47,7221.1
566.553,7255.9
566.637,7247.77
566.72,7254.53
566.804,7304.47
566.887,7355.6
566.971,7372.4
567.054,7325.9
567.138,7453.93
567.221,7420.8
567.305,7418.43
567.388,7429.37
567.472,7383.6
567.555,7403.13
567.639,7444.5
567.722,7465.43
567.806,7526.7
567.889,7699.97
567.973,7696.87
568.057,7624.43
568.14,7621.3
568.224,7605.7
568.307,7541.53
568.391,7531.63
568.474,7634.97
568.558,7694.83
568.641,7649.17
568.725,7483.43
568.808,7579.3
568.892,7869.43
568.975,7972.9
569.058,7887.6
569.142,7835.93
569.225,7794.73
569.309,7681.0
569.392,7719.83
569.476,7805.03
569.559,7805.83
569.643,7757.57
569.726,7732.2
569.81,7716.73
569.893,7786.8
569.977,7918.53
570.06,7949.67
570.144,7964.33
570.227,8019.13
570.311,8128.1
570.394,8175.3
570.477,8221.27
570.561,8193.83
570.644,8226.2
570.728,8241.23
570.811,8290.9
570.895,8275.9
570.978,8267.23
571.062,8300.77
571.145,8290.3
571.229,8407.43
571.312,8542.03
571.395,8696.1
571.479,8902.73
571.562,8907.53
571.646,8592.63
571.729,8451.0
571.813,8220.27
571.896,8121.6
571.979,8172.23
572.063,8183.97
572.146,8218.2
572.23,8301.33
572.313,8383.43
572.397,8544.4
572.48,8612.2
572.563,8601.2
572.647,8524.67
572.73,8648.97
572.814,8699.17
572.897,8594.17
572.98,8550.4
573.064,8555.63
573.147,8659.87
573.231,8838.73
573.314,9005.93
573.397,8959.8
573.481,8767.93
573.564,8724.47
573.648,8703.03
573.731,8569.33
573.814,8443.9
573.898,8252.93
573.981,8274.53
574.064,8297.17
574.148,8232.2
574.231,8152.13
574.315,8198.2
574.398,8334.37
574.481,8351.7
574.565,8259.93
574.648,8219.73
574.731,8218.67
574.815,8231.8
574.898,8239.13
574.982,8108.67
575.065,7989.3
575.148,8111.2
575.232,8234.03
575.315,8072.27
575.398,7937.6
575.482,7942.7
575.565,7995.13
575.648,8100.3
575.732,8028.37
575.815,8031.2
575.898,8217.53
575.982,8145.43
576.065,8046.33
576.148,8067.07
576.232,8219.63
576.315,8341.57
576.398,8274.3
576.482,8137.3
576.565,8193.63
576.648,8186.27
576.732,8150.3
576.815,8195.73
576.898,8142.4
576.982,8183.7
577.065,8196.27
577.148,8176.4
577.232,8107.23
577.315,8035.2
577.398,7936.4
577.481,7952.6
577.565,7976.8
577.648,8024.13
577.731,8010.4
577.815,8018.2
577.898,8013.33
577.981,7913.0
578.065,7918.37
578.148,8080.17
578.231,7998.17
578.314,8018.77
578.398,8086.03
578.481,8106.7
578.564,8109.83
578.648,8079.23
578.731,8113.63
578.814,8069.3
578.897,8018.2
578.981,8108.8
579.064,8205.27
579.147,8110.77
579.23,8197.53
579.314,8409.17
579.397,8509.63
579.48,8819.9
579.563,9076.83
579.647,9528.93
579.73,10137.0
579.813,10792.3
579.896,11287.1
579.98,11007.0
580.063,10475.0
580.146,10103.7
580.229,9905.37
580.313,9775.93
580.396,9676.1
580.479,9405.37
580.562,9272.0
580.646,9183.73
580.729,9265.63
580.812,9242.43
580.895,9259.03
580.979,9138.47
581.062,9090.23
581.145,9102.67
581.228,9157.53
581.311,9220.57
581.395,9393.27
581.478,9483.8
581.561,9689.3
581.644,9770.9
581.728,9620.77
581.811,9373.6
581.894,8971.9
581.977,8661.7
582.06,8488.3
582.144,8407.97
582.227,8319.33
582.31,8137.27
582.393,8047.37
582.476,8164.33
582.56,8193.93
582.643,8142.43
582.726,8109.17
582.809,8157.53
582.892,8154.83
582.975,8152.47
583.059,8200.3
583.142,8078.73
583.225,8047.8
583.308,8241.1
583.391,8206.1
583.475,7997.27
583.558,7989.2
583.641,8185.17
583.724,8095.03
583.807,8031.63
583.89,7945.47
583.973,7969.1
584.057,7968.87
584.14,8020.53
584.223,8114.6
584.306,8143.87
584.389,8040.3
584.472,7947.27
584.556,7984.97
584.639,8030.93
584.722,7984.27
584.805,7937.03
584.888,8099.6
584.971,8123.17
585.054,7958.83
585.138,7890.53
585.221,7971.33
585.304,8013.1
585.387,7947.57
585.47,7931.33
585.553,7926.8
585.636,7850.07
585.719,7831.37
585.802,7921.47
585.886,7911.67
585.969,7891.87
586.052,7948.6
586.135,8001.53
586.218,7963.97
586.301,8063.63
586.384,7936.7
586.467,7935.17
586.55,8069.6
586.634,7989.9
586.717,7867.6
586.8,7872.5
586.883,7931.67
586.966,7912.37
587.049,7983.47
587.132,8120.9
587.215,8174.6
587.298,8058.33
587.381,8031.37
587.464,8004.77
587.548,8031.67
587.631,8046.77
587.714,8104.97
587.797,8057.03
587.88,8018.6
587.963,7974.67
588.046,8031.17
588.129,8118.2
588.212,8120.83
588.295,8032.63
588.378,8001.9
588.461,7958.9
588.544,7952.1
588.627,8109.9
588.71,8123.33
588.793,8091.77
588.876,8043.93
588.96,8103.83
589.043,8110.13
589.126,8036.47
589.209,7970.13
589.292,8037.7
589.375,8056.73
589.458,7961.9
589.541,7914.0
589.624,7905.07
589.707,7970.53
589.79,7991.93
589.873,8074.43
589.956,8047.87
590.039,7986.13
590.122,7937.5
590.205,7870.07
590.288,7947.07
590.371,7919.5
590.454,7870.03
590.537,7946.1
590.62,8029.47
590.703,8087.13
590.786,8075.2
590.869,7937.27
590.952,7994.27
591.035,8131.2
591.118,8126.03
591.201,8090.63
591.284,8028.47
591.367,8149.23
591.45,8109.07
591.533,8025.33
591.616,7878.67
591.699,7955.9
591.782,8093.6
591.865,8149.3
591.948,8127.07
592.031,8125.87
592.114,8043.17
592.197,8057.8
592.28,8116.7
592.363,8122.3
592.446,7970.37
592.529,8038.1
592.611,7964.03
592.694,7972.77
592.777,8110.3
592.86,8100.53
592.943,8073.23
593.026,7966.23
593.109,8002.97
593.192,8054.07
593.275,8048.73
593.358,8013.23
593.441,7998.73
593.524,7943.17
593.607,8052.8
593.69,8068.5
593.773,8019.1
593.856,8096.17
593.939,8098.97
594.021,7956.87
594.104,7854.33
594.187,7949.43
594.27,8063.6
594.353,8025.27
594.436,8020.1
594.519,8049.57
594.602,8056.0
594.685,8084.83
594.768,8074.03
594.851,8049.3
594.933,8030.6
595.016,7978.63
595.099,7925.43
595.182,8043.27
595.265,8034.43
595.348,8056.37
595.431,8061.5
595.514,8188.07
595.597,8205.23
595.68,8102.37
595.762,7947.37
595.845,7890.0
595.928,7965.4
596.011,8066.97
596.094,8118.63
596.177,8114.63
596.26,8277.0
596.342,8288.7
596.425,8205.27
596.508,8163.4
596.591,8125.83
596.674,8098.3
596.757,8127.87
596.84,8098.2
596.923,8116.7
597.005,8042.93
597.088,8041.97
597.171,8129.8
597.254,8142.97
597.337,8185.2
597.42,8078.33
597.502,8038.23
597.585,8136.03
597.668,8183.83
597.751,8062.4
597.834,7999.1
597.917,8107.1
597.999,8162.2
598.082,8264.4
598.165,8238.3
598.248,8101.83
598.331,8094.6
598.414,8098.5
598.496,8132.83
598.579,8117.77
598.662,8124.4
598.745,8208.3
598.828,8109.67
598.91,8131.9
598.993,8267.77
599.076,8138.73
599.159,8079.57
599.242,8128.83
599.324,8109.57
599.407,8119.8
599.49,8060.87
599.573,8125.4
599.656,8185.23
599.738,8150.23
599.821,8198.3
599.904,8145.5
599.987,8198.03
600.069,8251.5
600.152,8269.23
600.235,8176.8
600.318,8174.53
600.401,8118.8
600.483,8207.47
600.566,8142.63
600.649,8123.23
600.732,8119.37
600.814,8105.1
600.897,8165.47
600.98,8161.83
601.063,8192.77
601.145,8161.37
601.228,8163.27
601.311,8087.57
601.394,8177.97
601.476,8232.4
601.559,8140.0
601.642,8022.87
601.725,7954.43
601.807,8037.63
601.89,8158.27
601.973,8261.6
602.055,8212.97
602.138,8095.4
602.221,7949.6
602.304,7952.5
602.386,8026.27
602.469,8075.83
602.552,8037.67
602.635,8118.9
602.717,8130.6
602.8,8009.37
602.883,8214.2
602.965,8224.03
603.048,8210.43
603.131,8241.43
603.213,8145.57
603.296,8076.97
603.379,8053.17
603.462,8052.37
603.544,8107.5
603.627,8073.57
603.71,8106.87
603.792,8060.47
603.875,8093.77
603.958,8159.1
604.04,8087.53
604.123,8119.4
604.206,8129.17
604.288,8122.53
604.371,8010.57
604.454,8019.4
604.536,8030.1
604.619,7981.1
604.702,8069.1
604.784,8069.27
604.867,8098.77
604.95,8075.9
605.032,8055.73
605.115,8012.83
605.198,8030.13
605.28,8039.67
605.363,8064.4
605.446,8025.63
605.528,7981.77
605.611,8085.33
605.693,8086.7
605.776,8035.43
605.859,8082.63
605.941,8194.87
606.024,8083.53
606.107,7889.27
606.189,7831.87
606.272,7959.47
606.354,8167.5
606.437,8223.47
606.52,8124.13
606.602,8175.23
606.685,8013.6
606.767,7831.07
606.85,7953.97
606.933,8133.73
607.015,8145.3
607.098,7954.9
607.181,7972.73
607.263,8111.37
607.346,8172.97
607.428,8084.17
607.511,7947.5
607.593,7911.2
607.676,8004.73
607.759,8177.43
607.841,8250.67
607.924,8115.63
608.006,7943.83
608.089,8031.7
608.172,8048.9
608.254,7969.63
608.337,7930.07
608.419,7945.97
608.502,7981.73
608.584,7997.1
608.667,8100.27
608.749,8043.0
608.832,8007.13
608.915,8050.17
608.997,7993.0
609.08,8034.1
609.162,8062.7
609.245,8177.3
609.327,8081.57
609.41,8013.73
609.492,8070.13
609.575,8000.57
609.657,8032.0
609.74,8078.07
609.823,8111.93
609.905,8062.87
609.988,8057.6
610.07,8046.8
610.153,8050.83
610.235,8055.43
610.318,7970.7
610.4,8039.07
610.483,8137.33
610.565,8076.97
610.648,8012.13
610.73,8006.33
610.813,8072.9
610.895,8086.6
610.978,8196.73
611.06,8097.83
611.143,8170.8
611.225,8005.9
611.308,8044.6
611.39,8055.33
611.473,8005.17
611.555,7992.23
611.638,8012.7
611.72,7960.3
611.803,8008.5
611.885,7965.13
611.968,8033.4
612.05,8097.8
612.133,7948.03
612.215,7786.0
612.297,7909.37
612.38,8094.8
612.462,8111.73
612.545,8074.03
612.627,8106.43
612.71,8054.1
612.792,8008.9
612.875,8015.43
612.957,8046.87
613.04,7953.33
613.122,7962.77
613.204,7956.63
613.287,7973.3
613.369,7936.5
613.452,7983.0
613.534,8016.23
613.617,8005.87
613.699,8089.7
613.781,8078.9
613.864,7989.8
613.946,7913.53
614.029,8047.3
614.111,7942.0
614.194,8014.77
614.276,7999.43
614.358,7914.0
614.441,7894.37
614.523,8111.77
614.606,8062.8
614.688,7988.53
614.77,7982.1
614.853,8038.0
614.935,8043.9
615.018,8009.27
615.1,7920.7
615.182,7849.4
615.265,7890.23
615.347,8031.83
615.43,8094.53
615.512,8061.43
615.594,8045.1
615.677,8032.6
615.759,7996.37
615.841,7889.13
615.924,7829.4
616.006,7827.73
616.089,8002.07
616.171,8128.13
616.253,8108.93
616.336,8113.9
616.418,8029.3
616.5,8051.9
616.583,8010.2
616.665,7910.1
616.747,7799.0
616.83,7828.9
616.912,8003.2
616.994,7947.5
617.077,8000.73
617.159,8087.07
617.242,7959.57
617.324,7955.47
617.406,7985.03
617.489,8004.27
617.571,7904.37
617.653,7761.93
617.735,7816.93
617.818,7954.8
617.9,8122.87
617.982,8140.87
618.065,8092.57
618.147,7968.73
618.229,7826.33
618.312,7927.03
618.394,7944.77
618.476,7940.9
618.559,8050.73
618.641,8109.97
618.723,8038.47
618.805,7978.47
618.888,8048.27
618.97,8067.63
619.052,7913.97
619.135,7981.43
619.217,8007.2
619.299,8000.83
619.381,8060.7
619.464,8093.7
619.546,8080.7
619.628,8124.67
619.711,8084.57
619.793,7974.37
619.875,7994.33
619.957,8061.6
620.04,7953.27
620.122,7905.37
620.204,8028.23
620.286,8098.6
620.369,7988.63
620.451,7854.5
620.533,7733.63
620.615,7805.9
620.698,7979.0
620.78,8102.03
620.862,8065.73
620.944,7963.8
621.027,7851.97
621.109,7825.5
621.191,7837.23
621.273,7930.13
621.356,7942.97
621.438,8038.53
621.52,8055.5
621.602,7995.57
621.684,7957.8
621.767,7959.3
621.849,7978.67
621.931,7794.8
622.013,7815.47
622.095,7899.27
622.178,8020.23
622.26,8050.67
622.342,7961.17
622.424,7839.37
622.506,7894.7
622.589,7973.4
622.671,7852.83
622.753,7804.83
622.835,7932.17
622.917,7969.13
623.0,7907.63
623.082,7903.93
623.164,7922.83
623.246,7934.0
623.328,7950.27
623.41,7840.37
623.493,7806.63
623.575,7831.6
623.657,7768.0
623.739,7716.03
623.821,7683.87
623.903,7756.4
623.986,7932.4
624.068,7923.43
624.15,7902.23
624.232,7874.0
624.314,7903.47
624.396,7901.27
624.478,7886.57
624.561,7840.6
624.643,7829.63
624.725,7857.97
624.807,7790.83
624.889,7849.93
624.971,7844.1
625.053,7853.33
625.136,7856.53
625.218,7880.73
625.3,7873.33
625.382,7861.37
625.464,7792.83
625.546,7855.23
625.628,7928.5
625.71,7781.23
625.792,7753.77
625.875,7791.1
625.957,7871.2
626.039,7865.0
626.121,7923.43
626.203,7868.27
626.285,7898.13
626.367,7928.6
626.449,7932.33
626.531,7904.2
626.613,7976.9
626.695,8013.47
626.778,7920.77
626.86,7983.5
626.942,7953.47
627.024,7941.93
627.106,8011.77
627.188,8152.63
627.27,8123.17
627.352,7975.83
627.434,7982.3
627.516,8048.1
627.598,8019.77
627.68,8082.1
627.762,8092.9
627.844,8177.53
627.926,8160.23
628.008,8025.23
628.09,8064.97
628.172,8219.2
628.255,8382.17
628.337,8303.0
628.419,8205.47
628.501,8272.27
628.583,8336.67
628.665,8404.73
628.747,8360.0
628.829,8347.63
628.911,8309.47
628.993,8316.9
629.075,8365.43
629.157,8420.7
629.239,8382.3
629.321,8381.0
629.403,8291.8
629.485,8279.1
629.567,8310.93
629.649,8255.5
629.731,8202.03
629.813,8070.43
629.895,7979.13
629.977,8091.07
630.059,8193.7
630.141,8121.7
630.223,7948.93
630.305,7928.53
630.387,7864.33
630.469,7972.9
630.551,8062.67
630.633,8152.8
630.715,7926.17
630.797,7901.6
630.878,7953.2
630.96,7830.43
631.042,7895.47
631.124,8010.47
631.206,8019.77
631.288,8020.1
631.37,7955.53
631.452,7759.07
631.534,7834.47
631.616,7788.33
631.698,7658.97
631.78,7626.9
631.862,7701.17
631.944,7789.47
632.026,7715.17
632.108,7659.27
632.19,7677.73
632.272,7604.33
632.353,7541.6
632.435,7587.83
632.517,7739.8
632.599,7786.77
632.681,7666.07
632.763,7625.7
632.845,7518.33
632.927,7570.9
633.009,7570.93
633.091,7561.07
633.173,7735.83
633.254,7741.3
633.336,7632.23
633.418,7650.67
633.5,7571.27
633.582,7447.83
633.664,7338.6
633.746,7407.5
633.828,7450.1
633.91,7577.2
633.991,7654.53
634.073,7636.23
634.155,7557.1
634.237,7457.03
634.319,7451.87
634.401,7428.27
634.483,7383.9
634.564,7416.2
634.646,7541.6
634.728,7492.0
634.81,7405.7
634.892,7337.17
634.974,7386.17
635.056,7395.47
635.137,7446.03
635.219,7404.4
635.301,7287.4
635.383,7282.27
635.465,7364.1
635.547,7403.47
635.628,7376.63
