nm,Intensity
528.616,1824.15
528.7,1824.2
528.785,1824.91
528.869,1823.92
528.953,1824.59
529.038,1824.47
529.122,1824.39
529.206,1824.07
529.29,1824.29
529.375,1824.5
529.459,1824.62
529.543,1825.07
529.627,1824.79
529.712,1824.97
529.796,1824.88
529.88,1824.83
529.964,1824.37
530.049,1824.97
530.133,1824.46
530.217,1825.31
530.301,1825.05
530.386,1824.67
530.47,1824.77
530.554,1825.13
530.638,1825.41
530.723,1825.15
530.807,1826.01
530.891,1826.25
530.975,1826.69
531.059,1827.27
531.144,1828.21
531.228,1829.41
531.312,1830.83
531.396,1833.51
531.481,1838.21
531.565,1855.9
531.649,1935.96
531.733,2314.79
531.817,3364.77
531.902,4433.77
531.986,5012.94
532.07,4440.75
532.154,3270.55
532.239,2196.17
532.323,1869.43
532.407,1832.45
532.491,1829.44
532.575,1829.26
532.66,1829.01
532.744,1828.42
532.828,1828.82
532.912,1828.63
532.996,1829.58
533.081,1830.13
533.165,1832.43
533.249,1836.37
533.333,1847.86
533.417,1884.79
533.501,1995.27
533.586,2247.07
533.67,2655.06
533.754,3130.75
533.838,3541.44
533.922,3858.98
534.007,4048.14
534.091,4172.89
534.175,4209.52
534.259,4172.12
534.343,4139.45
534.427,4157.15
534.512,4198.91
534.596,4254.01
534.68,4310.18
534.764,4339.49
534.848,4317.93
534.932,4304.95
535.017,4342.91
535.101,4398.61
535.185,4457.77
535.269,4464.89
535.353,4456.05
535.437,4465.25
535.522,4462.59
535.606,4474.36
535.69,4474.55
535.774,4462.39
535.858,4454.54
535.942,4478.45
536.026,4497.34
536.111,4490.77
536.195,4514.69
536.279,4486.99
536.363,4487.3
536.447,4490.3
536.531,4471.09
536.615,4461.41
536.7,4475.81
536.784,4496.21
536.868,4516.89
536.952,4578.55
537.036,4591.29
537.12,4639.54
537.204,4680.97
537.288,4732.17
537.373,4746.29
537.457,4783.71
537.541,4843.67
537.625,4869.81
537.709,4881.26
537.793,4924.51
537.877,4984.03
537.961,4979.37
538.045,4957.18
538.13,4963.33
538.214,5017.77
538.298,5061.72
538.382,5070.52
538.466,5085.59
538.55,5141.99
538.634,5171.68
538.718,5164.26
538.802,5161.05
538.886,5188.61
538.971,5222.18
539.055,5184.19
539.139,5196.22
539.223,5250.52
539.307,5193.45
539.391,5155.03
539.475,5211.91
539.559,5228.37
539.643,5177.22
539.727,5128.49
539.811,5105.45
539.895,5109.39
539.979,5098.74
540.064,5084.81
540.148,5092.67
540.232,5099.09
540.316,5067.05
540.4,5045.57
540.484,5062.18
540.568,5035.54
540.652,5072.2
540.736,5089.81
540.82,5060.51
540.904,5036.26
540.988,5005.07
541.072,5010.79
541.156,5024.92
541.24,5045.89
541.324,5054.37
541.408,5069.13
541.493,5107.4
541.577,5146.21
541.661,5139.91
541.745,5109.83
541.829,5093.9
541.913,5121.49
541.997,5176.11
542.081,5190.05
542.165,5197.41
542.249,5234.45
542.333,5255.83
542.417,5258.67
542.501,5301.21
542.585,5329.31
542.669,5374.9
542.753,5390.46
542.837,5353.82
542.921,5331.45
543.005,5339.96
543.089,5399.61
543.173,5445.57
543.257,5446.87
543.341,5456.27
543.425,5469.64
543.509,5494.75
543.593,5516.63
543.677,5565.53
543.761,5632.63
543.845,5743.76
543.929,5822.93
544.013,5857.51
544.097,5945.38
544.181,6058.05
544.265,6120.65
544.349,6213.55
544.433,6319.45
544.517,6520.65
544.601,6640.29
544.685,6694.17
544.769,6829.67
544.853,6917.41
544.937,6953.28
545.021,6938.96
545.105,6821.41
545.189,6665.11
545.273,6497.47
545.357,6332.53
545.441,6206.16
545.525,6054.49
545.609,5913.32
545.693,5818.7
545.777,5727.54
545.861,5670.8
545.945,5650.23
546.029,5565.08
546.113,5482.87
546.197,5487.14
546.281,5498.67
546.364,5479.9
546.448,5478.65
546.532,5455.42
546.616,5441.95
546.7,5440.75
546.784,5460.81
546.868,5481.81
546.952,5476.13
547.036,5499.95
547.12,5491.36
547.204,5508.64
547.288,5520.85
547.372,5542.77
547.456,5543.76
547.54,5569.12
547.624,5566.3
547.708,5540.3
547.791,5539.75
547.875,5534.52
547.959,5581.97
548.043,5623.64
548.127,5658.1
548.211,5705.99
548.295,5762.35
548.379,5821.41
548.463,5806.32
548.547,5869.61
548.631,5919.74
548.715,5964.3
548.798,6054.61
548.882,6184.62
548.966,6268.21
549.05,6318.8
549.134,6332.01
549.218,6379.55
549.302,6499.11
549.386,6640.24
549.47,6719.03
549.554,6857.76
549.637,6988.49
549.721,7098.03
549.805,7172.06
549.889,7201.87
549.973,7171.81
550.057,7022.1
550.141,6935.67
550.225,6892.04
550.309,6812.63
550.392,6660.44
550.476,6499.19
550.56,6401.81
550.644,6326.52
550.728,6241.36
550.812,6134.63
550.896,6079.25
550.98,6025.33
551.063,6019.07
551.147,5967.55
551.231,5899.45
551.315,5821.87
551.399,5836.29
551.483,5885.32
551.567,5883.1
551.65,5853.11
551.734,5802.25
551.818,5747.16
551.902,5747.83
551.986,5772.64
552.07,5787.57
552.153,5799.87
552.237,5790.04
552.321,5779.4
552.405,5716.5
552.489,5717.79
552.573,5740.41
552.657,5721.98
552.74,5653.79
552.824,5653.04
552.908,5661.01
552.992,5661.23
553.076,5647.71
553.159,5645.41
553.243,5606.83
553.327,5610.45
553.411,5622.49
553.495,5644.61
553.579,5639.01
553.662,5606.91
553.746,5595.35
553.83,5605.62
553.914,5586.29
553.998,5569.53
554.081,5594.13
554.165,5625.88
554.249,5625.33
554.333,5620.97
554.417,5588.37
554.5,5560.21
554.584,5584.35
554.668,5609.22
554.752,5603.21
554.836,5607.27
554.919,5594.45
555.003,5595.17
555.087,5588.46
555.171,5597.18
555.255,5607.14
555.338,5595.29
555.422,5571.11
555.506,5587.62
555.59,5631.75
555.673,5605.42
555.757,5601.24
555.841,5602.11
555.925,5611.15
556.009,5626.35
556.092,5653.58
556.176,5625.58
556.26,5594.65
556.344,5617.97
556.427,5613.42
556.511,5625.9
556.595,5634.07
556.679,5636.61
556.762,5633.83
556.846,5633.43
556.93,5592.68
557.014,5586.98
557.097,5624.72
557.181,5641.96
557.265,5637.22
557.349,5671.46
557.432,5661.93
557.516,5639.01
557.6,5601.03
557.684,5611.79
557.767,5662.92
557.851,5716.01
557.935,5693.21
558.018,5726.18
558.102,5717.54
558.186,5666.68
558.27,5676.33
558.353,5683.14
558.437,5690.81
558.521,5721.61
558.604,5718.09
558.688,5724.15
558.772,5744.49
558.856,5697.02
558.939,5666.87
559.023,5685.63
559.107,5717.77
559.19,5752.91
559.274,5777.12
559.358,5766.9
559.442,5702.22
559.525,5699.38
559.609,5728.54
559.693,5726.41
559.776,5701.04
559.86,5714.11
559.944,5712.74
560.027,5765.03
560.111,5756.4
560.195,5775.09
560.278,5748.07
560.362,5748.37
560.446,5779.23
560.529,5788.51
560.613,5834.64
560.697,5826.05
560.781,5830.3
560.864,5812.83
560.948,5793.79
561.032,5802.63
561.115,5854.87
561.199,5878.08
561.283,5889.81
561.366,5896.21
561.45,5903.87
561.533,5889.8
561.617,5891.49
561.701,5840.78
561.784,5884.93
561.868,5950.76
561.952,5985.49
562.035,5944.81
562.119,5928.03
562.203,5926.92
562.286,5931.22
562.37,5923.82
562.454,5902.13
562.537,5917.01
562.621,5916.92
562.704,5931.47
562.788,5977.76
562.872,6004.05
562.955,5991.07
563.039,5988.61
563.123,6002.85
563.206,6017.73
563.29,6016.67
563.373,5965.53
563.457,5967.71
563.541,6001.24
563.624,6014.05
563.708,6055.88
563.792,6125.82
563.875,6158.43
563.959,6188.66
564.042,6210.48
564.126,6185.41
564.21,6166.23
564.293,6168.36
564.377,6138.72
564.46,6104.39
564.544,6088.65
564.628,6118.84
564.711,6136.64
564.795,6168.11
564.878,6155.59
564.962,6172.14
565.045,6143.84
565.129,6110.8
565.213,6117.56
565.296,6151.3
565.38,6170.29
565.463,6197.25
565.547,6209.13
565.631,6223.63
565.714,6249.23
565.798,6252.08
565.881,6323.63
565.965,6394.02
566.048,6378.77
566.132,6355.87
566.215,6293.86
566.299,6295.63
566.383,6239.13
566.466,6167.74
566.55,6199.01
566.633,6239.18
566.717,6265.29
566.8,6246.59
566.884,6214.97
566.967,6208.09
567.051,6204.79
567.135,6246.18
567.218,6275.1
567.302,6321.73
567.385,6289.49
567.469,6263.51
567.552,6263.82
567.636,6274.07
567.719,6275.97
567.803,6264.78
567.886,6265.32
567.97,6277.54
568.053,6291.77
568.137,6330.33
568.22,6293.58
568.304,6322.51
568.387,6343.2
568.471,6337.93
568.554,6356.09
568.638,6379.95
568.721,6380.97
568.805,6387.94
568.888,6394.39
568.972,6396.44
569.055,6401.96
569.139,6398.97
569.222,6381.18
569.306,6399.85
569.389,6410.01
569.473,6461.77
569.556,6445.01
569.64,6456.13
569.723,6470.28
569.807,6490.37
569.89,6447.67
569.974,6420.48
570.057,6480.5
570.141,6500.35
570.224,6483.59
570.308,6523.15
570.391,6505.81
570.475,6465.41
570.558,6459.42
570.642,6488.12
570.725,6560.79
570.808,6621.45
570.892,6598.96
570.975,6561.35
571.059,6573.99
571.142,6631.95
571.226,6711.43
571.309,6809.97
571.393,6949.4
571.476,7016.19
571.56,6948.89
571.643,6860.29
571.726,6821.93
571.81,6789.57
571.893,6752.09
571.977,6745.25
572.06,6699.08
572.144,6730.81
572.227,6739.54
572.31,6766.91
572.394,6806.81
572.477,6818.2
572.561,6796.15
572.644,6775.86
572.728,6767.8
572.811,6793.33
572.894,6800.23
572.978,6786.69
573.061,6808.37
573.145,6807.93
573.228,6751.75
573.311,6744.83
573.395,6763.19
573.478,6764.21
573.562,6755.79
573.645,6743.61
573.728,6746.98
573.812,6803.29
573.895,6786.33
573.979,6785.02
574.062,6762.99
574.145,6721.53
574.229,6745.02
574.312,6755.74
574.396,6714.0
574.479,6755.5
574.562,6736.93
574.646,6786.29
574.729,6782.62
574.813,6772.39
574.896,6774.03
574.979,6827.05
575.063,6790.59
575.146,6786.65
575.229,6892.33
575.313,6931.01
575.396,6980.06
575.479,6958.81
575.563,6916.96
575.646,6954.17
575.729,6987.11
575.813,7007.13
575.896,7042.72
575.98,7092.41
576.063,7192.38
576.146,7296.37
576.23,7302.29
576.313,7270.79
576.396,7239.97
576.48,7240.01
576.563,7219.35
576.646,7242.86
576.73,7238.94
576.813,7195.86
576.896,7160.39
576.98,7089.24
577.063,7036.53
577.146,7031.97
577.23,7045.12
577.313,7018.05
577.396,6996.99
577.48,6977.47
577.563,6922.53
577.646,6902.33
577.729,6901.95
577.813,6836.51
577.896,6811.24
577.979,6861.05
578.063,6921.77
578.146,6920.29
578.229,6906.2
578.313,6884.57
578.396,6867.31
578.479,6894.81
578.562,6879.73
578.646,6853.92
578.729,6849.97
578.812,6885.94
578.896,6913.81
578.979,6949.35
579.062,6911.05
579.145,6880.42
579.229,6897.74
579.312,6906.59
579.395,6944.57
579.479,6987.95
579.562,6957.29
579.645,6925.57
579.728,6963.87
579.812,7005.26
579.895,6980.81
579.978,6966.54
580.061,6984.6
580.145,6977.47
580.228,7029.44
580.311,7047.47
580.394,7043.25
580.478,7000.29
580.561,7012.43
580.644,7059.65
580.727,7060.19
580.811,7108.29
580.894,7111.06
580.977,7034.97
581.06,6986.39
581.144,7026.71
581.227,7037.32
581.31,7065.67
581.393,7067.22
581.476,7031.34
581.56,7087.51
581.643,7109.0
581.726,7112.85
581.809,7076.31
581.893,7029.93
581.976,7073.79
582.059,7088.38
582.142,7034.19
582.225,6993.96
582.309,7010.99
582.392,6983.25
582.475,7013.39
582.558,7016.7
582.641,6996.63
582.725,6961.05
582.808,6926.25
582.891,6966.05
582.974,6972.63
583.057,6973.68
583.141,6966.47
583.224,6916.62
583.307,6915.03
583.39,6966.14
583.473,6993.41
583.556,7004.27
583.64,6991.61
583.723,6980.55
583.806,6972.69
583.889,6940.05
583.972,6944.35
584.055,6933.32
584.139,6963.14
584.222,6950.36
584.305,6968.1
584.388,6965.22
584.471,6950.15
584.554,6923.22
584.638,6921.04
584.721,6944.56
584.804,6904.84
584.887,6867.03
584.97,6923.52
585.053,6959.08
585.136,6922.25
585.22,6881.71
585.303,6853.59
585.386,6871.37
585.469,6919.06
585.552,6855.17
585.635,6844.97
585.718,6886.88
585.802,6923.44
585.885,6880.61
585.968,6868.58
586.051,6867.17
586.134,6919.71
586.217,6938.67
586.3,6866.11
586.383,6833.1
586.466,6865.08
586.55,6910.47
586.633,6910.12
586.716,6879.92
586.799,6910.34
586.882,6902.79
586.965,6956.53
587.048,6942.87
587.131,6960.24
587.214,6948.16
587.297,6953.95
587.381,6907.98
587.464,6869.34
587.547,6876.43
587.63,6984.16
587.713,6982.65
587.796,6973.35
587.879,6993.03
587.962,7001.53
588.045,6978.81
588.128,6899.96
588.211,6935.99
588.294,6954.44
588.377,6962.35
588.461,6943.81
588.544,6887.79
588.627,6897.44
588.71,6981.63
588.793,7005.41
588.876,6971.18
588.959,6950.71
589.042,6894.4
589.125,6873.75
589.208,6858.54
589.291,6869.69
589.374,6900.55
589.457,6944.92
589.54,6911.76
589.623,6919.32
589.706,6911.51
589.789,6891.52
589.872,6925.36
589.955,6913.59
590.038,6889.11
590.121,6879.21
590.204,6934.25
590.287,6931.73
590.37,6865.06
590.453,6862.57
590.536,6932.03
590.619,6959.13
590.703,6916.75
590.786,6951.26
590.869,6940.42
590.952,6923.67
591.035,6930.79
591.118,6949.38
591.201,6972.05
591.284,6937.38
591.367,6924.5
591.45,6915.59
591.533,6897.09
591.615,6913.79
591.698,6914.4
591.781,6930.46
591.864,6924.87
591.947,6958.89
592.03,6968.06
592.113,6977.59
592.196,7009.95
592.279,6998.97
592.362,7000.36
592.445,7022.93
592.528,6966.19
592.611,6945.79
592.694,6901.63
592.777,6897.79
592.86,6973.73
592.943,6915.41
593.026,6878.75
593.109,6908.05
593.192,6932.16
593.275,6957.15
593.358,6923.08
593.441,6878.57
593.524,6920.97
593.607,6936.3
593.69,6937.75
593.773,6917.61
593.855,6912.41
593.938,6919.83
594.021,6856.59
594.104,6857.86
594.187,6895.15
594.27,6937.52
594.353,7004.82
594.436,7020.06
594.519,6922.43
594.602,6874.92
594.685,6841.62
594.768,6904.5
594.851,6942.49
594.933,6963.7
595.016,6994.07
595.099,6928.06
595.182,6902.8
595.265,6865.54
595.348,6897.67
595.431,6977.11
595.514,6957.49
595.597,7000.45
595.68,7039.35
595.762,7062.29
595.845,7008.1
595.928,6957.85
596.011,6968.44
596.094,7009.52
596.177,7040.43
596.26,6997.82
596.343,6982.28
596.425,6992.89
596.508,6981.27
596.591,6929.52
596.674,6948.99
596.757,6965.27
596.84,6973.99
596.923,6986.06
597.006,6956.12
597.088,6903.69
597.171,6947.59
597.254,7004.08
597.337,6997.37
597.42,6953.79
597.503,6963.79
597.585,6946.02
597.668,6956.2
597.751,6953.73
597.834,6981.77
597.917,6965.2
598.0,6940.85
598.082,6939.74
598.165,6960.18
598.248,6971.08
598.331,6984.98
598.414,6983.18
598.497,6993.15
598.579,6981.09
598.662,6937.97
598.745,6922.73
598.828,6907.54
598.911,6906.59
598.994,6956.54
599.076,6973.73
599.159,7011.07
599.242,7017.73
599.325,7015.32
599.408,7005.21
599.49,7047.85
599.573,7031.35
599.656,6971.51
599.739,6904.57
599.821,6932.69
599.904,6944.05
599.987,6993.11
600.07,7011.08
600.153,7000.79
600.235,6973.89
600.318,6982.05
600.401,6949.58
600.484,6988.93
600.567,7007.51
600.649,6962.07
600.732,6987.73
600.815,7047.95
600.898,7010.66
600.98,6918.63
601.063,6947.99
601.146,6965.51
601.229,6956.16
601.311,6924.17
601.394,6969.15
601.477,7010.85
601.56,6994.85
601.642,7014.64
601.725,7002.67
601.808,6924.49
601.891,6946.33
601.973,6953.59
602.056,6949.73
602.139,7007.89
602.221,7060.97
602.304,7023.79
602.387,6919.66
602.47,6900.85
602.552,6982.05
602.635,6977.23
602.718,6951.21
602.801,6997.59
602.883,6968.39
602.966,6959.59
603.049,6939.45
603.131,6924.13
603.214,6917.03
603.297,6934.87
603.379,6950.97
603.462,7012.42
603.545,7000.12
603.628,6948.39
603.71,6929.94
603.793,6873.06
603.876,6909.39
603.958,6948.86
604.041,6972.77
604.124,6987.65
604.206,7007.83
604.289,7033.67
604.372,6988.61
604.454,6951.11
604.537,6932.9
604.62,6849.16
604.702,6841.28
604.785,6894.09
604.868,6950.72
604.95,6917.11
605.033,6868.47
605.116,6854.16
605.198,6890.1
605.281,6906.81
605.364,6943.93
605.446,6943.76
605.529,6936.13
605.612,6884.53
605.694,6832.35
605.777,6849.83
605.86,6861.8
605.942,6883.92
606.025,6937.49
606.107,6944.05
606.19,6904.23
606.273,6891.51
606.355,6903.49
606.438,6947.54
606.521,6958.15
606.603,6887.27
606.686,6886.31
606.768,6883.63
606.851,6856.05
606.934,6891.65
607.016,6931.81
607.099,6903.53
607.181,6908.41
607.264,6957.74
607.347,6944.81
607.429,6916.63
607.512,6896.55
607.594,6866.13
607.677,6861.99
607.76,6866.19
607.842,6853.4
607.925,6928.17
608.007,6970.15
608.09,6888.89
608.173,6894.65
608.255,6867.73
608.338,6902.35
608.42,6920.06
608.503,6883.52
608.585,6835.41
608.668,6787.43
608.751,6773.35
608.833,6869.79
608.916,6914.27
608.998,6908.97
609.081,6895.95
609.163,6893.65
609.246,6881.59
609.328,6895.11
609.411,6835.83
609.494,6887.69
609.576,6881.19
609.659,6833.93
609.741,6815.77
609.824,6825.27
609.906,6824.15
609.989,6876.37
610.071,6859.73
610.154,6870.73
610.236,6892.51
610.319,6913.1
610.401,6890.13
610.484,6901.34
610.566,6934.21
610.649,6882.66
610.731,6860.7
610.814,6884.91
610.896,6881.19
610.979,6892.0
611.061,6857.63
611.144,6824.2
611.226,6857.45
611.309,6957.39
611.391,6880.61
611.474,6783.15
611.556,6805.17
611.639,6867.32
611.721,6867.57
611.804,6805.17
611.886,6761.98
611.969,6771.07
612.051,6784.26
612.134,6842.2
612.216,6880.53
612.299,6844.33
612.381,6905.91
612.464,6891.64
612.546,6780.47
612.629,6777.63
612.711,6826.39
612.794,6794.6
612.876,6774.09
612.958,6834.37
613.041,6816.43
613.123,6820.36
613.206,6793.09
613.288,6755.77
613.371,6765.35
613.453,6835.09
613.536,6782.11
613.618,6819.12
613.7,6821.57
613.783,6775.03
613.865,6848.41
613.948,6867.77
614.03,6810.78
614.113,6762.41
614.195,6740.99
614.277,6777.92
614.36,6740.53
614.442,6742.45
614.525,6755.25
614.607,6797.17
614.689,6799.66
614.772,6829.92
614.854,6827.34
614.937,6809.44
615.019,6747.14
615.102,6742.87
615.184,6777.83
615.266,6820.03
615.349,6827.72
615.431,6798.07
615.513,6822.77
615.596,6846.78
615.678,6850.67
615.761,6777.03
615.843,6730.03
615.925,6726.45
616.008,6768.75
616.09,6797.67
616.172,6772.65
616.255,6778.29
616.337,6800.91
616.42,6801.51
616.502,6723.85
616.584,6721.8
616.667,6713.17
616.749,6751.05
616.831,6765.83
616.914,6799.33
616.996,6839.0
617.078,6808.31
617.161,6758.88
617.243,6736.45
617.325,6731.49
617.408,6767.17
617.49,6751.32
617.572,6757.27
617.655,6778.63
617.737,6740.41
617.819,6788.99
617.902,6782.33
617.984,6815.62
618.066,6844.43
618.149,6858.73
618.231,6784.77
618.313,6726.99
618.396,6713.37
618.478,6750.35
618.56,6803.31
618.643,6824.27
618.725,6799.38
618.807,6793.59
618.889,6778.79
618.972,6771.6
619.054,6783.22
619.136,6739.58
619.219,6809.02
619.301,6749.97
619.383,6768.45
619.465,6847.78
619.548,6872.21
619.63,6854.94
619.712,6829.28
619.795,6822.57
619.877,6865.85
619.959,6806.89
620.041,6743.91
620.124,6720.95
620.206,6798.43
620.288,6852.47
620.37,6804.35
620.453,6755.01
620.535,6765.86
620.617,6781.5
620.699,6815.73
620.782,6795.07
620.864,6748.59
620.946,6756.55
621.028,6805.01
621.111,6771.83
621.193,6749.57
621.275,6752.57
621.357,6735.31
621.44,6789.81
621.522,6850.85
621.604,6848.25
621.686,6800.12
621.768,6771.03
621.851,6772.18
621.933,6784.2
622.015,6846.07
622.097,6830.54
622.179,6821.85
622.262,6859.63
622.344,6867.77
622.426,6858.98
622.508,6813.59
622.59,6788.39
622.673,6786.19
622.755,6802.65
622.837,6823.65
622.919,6806.49
623.001,6781.11
623.084,6748.29
623.166,6738.68
623.248,6713.91
623.33,6714.91
623.412,6742.45
623.495,6698.1
623.577,6698.27
623.659,6678.31
623.741,6690.19
623.823,6742.83
623.905,6795.37
623.987,6793.54
624.07,6747.85
624.152,6711.02
624.234,6746.7
624.316,6692.65
624.398,6717.45
624.48,6684.1
624.563,6679.55
624.645,6723.4
624.727,6726.08
624.809,6688.01
624.891,6704.58
624.973,6730.65
625.055,6732.19
625.137,6736.33
625.22,6731.95
625.302,6698.5
625.384,6653.43
625.466,6657.57
625.548,6666.16
625.63,6674.79
625.712,6709.66
625.794,6689.11
625.876,6712.51
625.959,6766.22
626.041,6819.14
626.123,6821.02
626.205,6781.93
626.287,6718.67
626.369,6758.82
626.451,6842.09
626.533,6933.73
626.615,7087.11
626.697,7269.21
626.78,7442.55
626.862,7620.71
626.944,7826.87
627.026,8034.7
627.108,8167.47
627.19,8172.89
627.272,8116.57
627.354,8042.37
627.436,7920.09
627.518,7849.79
627.6,7755.61
627.682,7643.95
627.764,7624.92
627.846,7677.83
627.928,7645.43
628.01,7715.66
628.092,7828.17
628.175,7966.75
628.257,8182.81
628.339,8339.01
628.421,8463.5
628.503,8582.03
628.585,8558.27
628.667,8265.49
628.749,8027.75
628.831,7812.57
628.913,7730.83
628.995,7738.26
629.077,7755.64
629.159,7758.44
629.241,7686.26
629.323,7648.89
629.405,7594.6
629.487,7508.4
629.569,7447.01
629.651,7377.02
629.733,7415.39
629.815,7413.15
629.897,7290.85
629.979,7308.05
630.061,7329.29
630.143,7247.05
630.225,7228.05
630.307,7195.09
630.389,7145.95
630.471,7190.43
630.553,7258.42
630.635,7248.17
630.717,7061.77
630.799,6965.11
630.881,6889.01
630.963,6899.43
631.045,6881.46
631.127,6813.32
631.208,6799.45
631.29,6753.25
631.372,6710.4
631.454,6703.01
631.536,6649.07
631.618,6643.19
631.7,6640.91
631.782,6622.87
631.864,6606.91
631.946,6656.42
632.028,6627.88
632.11,6543.48
632.192,6529.2
632.274,6540.92
632.356,6563.63
632.438,6612.53
632.519,6617.06
632.601,6591.69
632.683,6574.6
632.765,6539.72
632.847,6515.87
632.929,6549.64
633.011,6565.52
633.093,6483.37
633.175,6454.93
633.257,6531.19
633.339,6551.36
633.42,6470.36
633.502,6441.31
