nm,Intensity
526.486,830.5
526.622,829.3
526.759,831.6
526.896,829.7
527.033,830.3
527.169,830.3
527.306,830.7
527.443,829.2
527.579,830.4
527.716,830.6
527.853,830.2
527.989,829.5
528.126,830.5
528.263,829.9
528.399,830.4
528.536,830.1
528.672,830.9
528.809,829.9
528.946,829.7
529.082,829.9
529.219,831.3
529.355,829.8
529.492,830.8
529.628,831.0
529.765,830.3
529.901,830.0
530.038,829.7
530.174,830.9
530.311,831.0
530.447,829.6
530.584,830.4
530.72,829.9
530.857,830.1
530.993,829.9
531.13,830.5
531.266,831.2
531.403,829.3
531.539,831.3
531.676,830.4
531.812,830.7
531.948,833.0
532.085,864.3
532.221,887.4
532.358,848.2
532.494,830.4
532.63,830.2
532.767,830.5
532.903,829.8
533.039,830.1
533.176,831.2
533.312,831.1
533.448,831.8
533.585,841.1
533.721,920.7
533.857,1363.6
533.993,2230.0
534.13,2731.4
534.266,2743.1
534.402,2597.6
534.539,2452.4
534.675,2323.3
534.811,2177.7
534.947,1983.9
535.083,1811.8
535.22,1671.0
535.356,1532.4
535.492,1426.5
535.628,1343.0
535.764,1269.2
535.901,1209.3
536.037,1163.7
536.173,1133.1
536.309,1103.2
536.445,1086.8
536.581,1074.7
536.717,1070.3
536.854,1058.1
536.99,1054.9
537.126,1044.4
537.262,1041.6
537.398,1029.7
537.534,1024.7
537.67,1018.0
537.806,1018.9
537.942,1026.1
538.078,1036.4
538.214,1051.8
538.35,1053.4
538.486,1056.0
538.622,1053.2
538.758,1041.3
538.894,1014.9
539.03,988.5
539.166,960.1
539.302,942.0
539.438,932.1
539.574,929.9
539.71,930.1
539.846,924.2
539.982,924.8
540.118,919.7
540.254,918.6
540.39,914.7
540.526,916.0
540.662,910.4
540.798,906.2
540.933,905.9
541.069,907.0
541.205,901.9
541.341,903.4
541.477,903.9
541.613,905.4
541.749,907.6
541.884,909.1
542.02,905.6
542.156,902.1
542.292,904.6
542.428,900.4
542.563,901.3
542.699,901.2
542.835,904.0
542.971,902.4
543.106,902.4
543.242,903.7
543.378,913.8
543.514,914.8
543.649,916.5
543.785,919.3
543.921,920.1
544.057,917.9
544.192,912.3
544.328,909.9
544.464,903.6
544.599,899.9
544.735,895.5
544.871,899.1
545.006,894.3
545.142,892.9
545.278,894.6
545.413,890.0
545.549,892.0
545.684,888.3
545.82,887.4
545.956,887.4
546.091,887.8
546.227,886.5
546.362,883.6
546.498,884.2
546.634,886.4
546.769,883.7
546.905,884.7
547.04,882.7
547.176,885.0
547.311,886.3
547.447,887.3
547.582,884.7
547.718,891.0
547.853,892.7
547.989,892.0
548.124,890.7
548.26,891.6
548.395,889.4
548.531,889.3
548.666,888.1
548.802,885.1
548.937,882.2
549.072,885.3
549.208,881.7
549.343,881.7
549.479,882.1
549.614,883.3
549.75,880.1
549.885,883.2
550.02,888.3
550.156,902.2
550.291,966.8
550.426,988.5
550.562,923.6
550.697,891.9
550.832,882.4
550.968,875.9
551.103,875.5
551.238,874.9
551.374,874.3
551.509,873.1
551.644,871.0
551.78,872.2
551.915,875.2
552.05,869.7
552.185,870.0
552.321,874.2
552.456,869.0
552.591,871.3
552.726,875.3
552.862,871.3
552.997,875.2
553.132,868.8
553.267,869.9
553.403,870.8
553.538,871.9
553.673,876.7
553.808,883.7
553.943,892.9
554.078,896.9
554.214,906.5
554.349,912.8
554.484,918.6
554.619,919.0
554.754,922.0
554.889,912.7
555.024,910.4
555.16,906.2
555.295,914.5
555.43,932.0
555.565,954.4
555.7,975.6
555.835,958.3
555.97,930.8
556.105,914.3
556.24,901.2
556.375,889.6
556.51,884.6
556.645,878.6
556.78,884.1
556.915,891.7
557.05,897.7
557.185,900.0
557.32,894.6
557.455,886.5
557.59,884.6
557.725,882.5
557.86,884.6
557.995,882.4
558.13,882.4
558.265,881.2
558.4,878.2
558.535,880.4
558.67,881.4
558.805,885.6
558.94,890.3
559.075,894.9
559.21,894.9
559.345,885.5
559.479,884.2
559.614,880.1
559.749,876.5
559.884,873.0
560.019,876.6
560.154,876.6
560.289,878.7
560.424,878.2
560.558,881.2
560.693,882.2
560.828,885.1
560.963,885.0
561.098,887.4
561.232,888.8
561.367,890.9
561.502,909.9
561.637,935.8
561.772,979.5
561.906,1082.3
562.041,1527.1
562.176,1898.8
562.311,1396.4
562.445,1010.9
562.58,921.9
562.715,916.5
562.85,967.5
562.984,1080.5
563.119,1160.5
563.254,1083.6
563.388,981.3
563.523,929.8
563.658,916.5
563.792,911.8
563.927,909.3
564.062,912.0
564.196,912.8
564.331,918.4
564.466,917.4
564.6,915.5
564.735,912.1
564.87,915.3
565.004,912.2
565.139,912.4
565.273,907.5
565.408,910.1
565.543,896.7
565.677,886.8
565.812,886.7
565.946,884.3
566.081,880.0
566.215,880.7
566.35,881.0
566.485,883.6
566.619,890.5
566.754,906.4
566.888,938.8
567.023,983.6
567.157,977.5
567.292,947.4
567.426,925.0
567.561,933.2
567.695,954.5
567.83,1002.8
567.964,1032.2
568.099,1022.5
568.233,1029.1
568.368,1048.7
568.502,1049.1
568.636,1031.3
568.771,996.6
568.905,958.5
569.04,937.8
569.174,924.8
569.309,921.6
569.443,914.7
569.577,908.3
569.712,903.7
569.846,903.9
569.98,906.0
570.115,901.7
570.249,902.9
570.384,901.0
570.518,898.7
570.652,900.6
570.787,900.0
570.921,898.3
571.055,902.3
571.19,902.4
571.324,903.2
571.458,904.9
571.592,912.3
571.727,912.3
571.861,917.8
571.995,916.8
572.13,922.8
572.264,922.7
572.398,936.7
572.532,934.1
572.667,937.4
572.801,941.0
572.935,930.8
573.069,926.5
573.204,918.0
573.338,914.5
573.472,912.3
573.606,911.7
573.74,910.3
573.875,909.4
574.009,910.2
574.143,911.4
574.277,908.0
574.411,902.3
574.545,895.2
574.68,895.1
574.814,890.8
574.948,894.6
575.082,896.5
575.216,895.8
575.35,892.9
575.484,890.0
575.619,892.1
575.753,893.1
575.887,892.8
576.021,897.6
576.155,906.8
576.289,918.1
576.423,933.3
576.557,951.1
576.691,959.2
576.825,947.1
576.959,928.6
577.093,906.5
577.227,899.6
577.361,896.7
577.495,894.4
577.629,891.7
577.763,894.5
577.897,890.8
578.031,897.6
578.165,896.6
578.299,897.3
578.433,894.0
578.567,892.5
578.701,895.7
578.835,895.7
578.969,894.5
579.103,893.7
579.237,894.8
579.371,892.6
579.505,889.6
579.639,895.3
579.773,893.6
579.907,893.4
580.041,895.5
580.175,895.4
580.309,899.7
580.442,898.7
580.576,900.1
580.71,901.7
580.844,912.4
580.978,935.6
581.112,983.4
581.246,986.1
581.38,954.0
581.513,967.2
581.647,1045.6
581.781,1158.1
581.915,1120.7
582.049,1005.9
582.183,938.5
582.316,913.4
582.45,905.7
582.584,902.1
582.718,899.0
582.852,896.7
582.985,895.3
583.119,895.8
583.253,890.0
583.387,892.2
583.52,890.9
583.654,893.0
583.788,894.1
583.922,894.1
584.055,893.8
584.189,887.3
584.323,895.7
584.456,891.5
584.59,891.3
584.724,894.7
584.858,891.1
584.991,890.7
585.125,889.8
585.259,889.9
585.392,890.0
585.526,888.5
585.66,886.4
585.793,890.0
585.927,886.1
586.061,887.2
586.194,888.1
586.328,888.9
586.462,888.3
586.595,887.5
586.729,888.9
586.862,884.0
586.996,888.8
587.13,887.6
587.263,888.1
587.397,887.9
587.53,886.2
587.664,888.5
587.797,883.7
587.931,889.5
588.065,886.1
588.198,888.8
588.332,885.6
588.465,888.3
588.599,888.9
588.732,888.6
588.866,885.4
588.999,886.9
589.133,887.5
589.266,886.2
589.4,884.1
589.533,884.9
589.667,884.8
589.8,882.7
589.934,882.5
590.067,883.6
590.201,884.8
590.334,884.5
590.468,882.9
590.601,882.6
590.735,883.4
590.868,883.7
591.001,883.2
591.135,880.8
591.268,883.2
591.402,884.0
591.535,886.6
591.669,881.7
591.802,883.5
591.935,883.3
592.069,882.2
592.202,882.2
592.335,884.0
592.469,880.8
592.602,878.4
592.736,883.6
592.869,884.2
593.002,881.3
593.136,884.5
593.269,885.2
593.402,883.3
593.536,881.1
593.669,881.1
593.802,880.5
593.936,881.8
594.069,879.4
594.202,882.7
594.336,884.1
594.469,880.0
594.602,881.2
594.735,882.5
594.869,878.7
595.002,882.0
595.135,883.9
595.268,883.4
595.402,879.0
595.535,880.3
595.668,879.6
595.801,882.9
595.935,881.7
596.068,883.7
596.201,880.9
596.334,880.5
596.468,885.2
596.601,882.1
596.734,883.5
596.867,881.0
597.0,880.1
597.133,880.8
597.267,880.1
597.4,878.1
597.533,881.8
597.666,880.5
597.799,883.4
597.932,881.0
598.066,882.5
598.199,882.5
598.332,882.3
598.465,881.2
598.598,883.0
598.731,883.5
598.864,882.8
598.998,882.3
599.131,884.0
599.264,882.9
599.397,881.5
599.53,881.8
599.663,882.5
599.796,884.9
599.929,885.0
600.062,881.7
600.195,882.8
600.328,884.0
600.461,881.4
600.594,884.7
600.727,884.7
600.86,882.0
600.994,884.6
601.127,880.8
601.26,883.4
601.393,882.4
601.526,881.5
601.659,883.9
601.792,881.2
601.925,883.2
602.058,885.9
602.191,884.3
602.324,882.4
602.457,886.1
602.589,885.6
602.722,881.4
602.855,886.1
602.988,887.5
603.121,883.6
603.254,887.6
603.387,883.2
603.52,886.3
603.653,888.4
603.786,884.7
603.919,885.3
604.052,884.7
604.185,886.5
604.318,886.1
604.451,881.2
604.583,887.9
604.716,882.0
604.849,884.9
604.982,887.1
605.115,887.9
605.248,884.3
605.381,886.8
605.514,885.4
605.646,887.8
605.779,882.9
605.912,887.3
606.045,884.2
606.178,887.2
606.311,884.7
606.443,884.6
606.576,886.7
606.709,887.3
606.842,888.1
606.975,889.1
607.107,887.6
607.24,889.3
607.373,884.3
607.506,886.7
607.639,890.0
607.771,886.4
607.904,890.7
608.037,889.6
608.17,895.5
608.302,887.6
608.435,891.6
608.568,890.8
608.701,891.6
608.833,892.6
608.966,890.6
609.099,890.2
609.232,890.2
609.364,890.1
609.497,891.6
609.63,893.1
609.762,891.5
609.895,892.0
610.028,890.7
610.161,895.6
610.293,893.7
610.426,893.5
610.559,892.5
610.691,895.9
610.824,894.7
610.957,893.9
611.089,891.2
611.222,892.3
611.355,896.2
611.487,897.5
611.62,897.5
611.752,894.0
611.885,901.0
612.018,899.0
612.15,900.2
612.283,899.1
612.416,902.3
612.548,900.9
612.681,898.1
612.813,897.1
612.946,900.6
613.078,901.9
613.211,897.7
613.344,899.7
613.476,898.2
613.609,900.3
613.741,903.9
613.874,898.1
614.006,903.0
614.139,904.9
614.272,900.2
614.404,902.5
614.537,900.0
614.669,900.1
614.802,903.8
614.934,903.0
615.067,900.3
615.199,902.3
615.332,907.2
615.464,902.2
615.597,903.6
615.729,906.1
615.862,906.2
615.994,905.6
616.127,907.2
616.259,906.6
616.392,909.6
616.524,906.7
616.657,907.7
616.789,910.2
616.922,910.0
617.054,912.3
617.186,910.6
617.319,914.8
617.451,913.7
617.584,909.2
617.716,914.3
617.849,913.8
617.981,913.0
618.113,917.4
618.246,914.3
618.378,915.1
618.511,918.1
618.643,914.1
618.775,916.2
618.908,911.3
619.04,910.3
619.173,917.8
619.305,913.7
619.437,915.1
619.57,914.2
619.702,918.0
619.834,917.5
619.967,917.6
620.099,913.7
620.231,911.7
620.364,913.3
620.496,913.4
620.628,915.1
620.761,917.7
620.893,913.4
621.025,913.3
621.158,912.9
621.29,916.3
621.422,917.4
621.555,914.4
621.687,916.6
621.819,916.4
621.952,921.0
622.084,919.9
622.216,917.1
622.348,919.3
622.481,918.7
622.613,922.2
622.745,917.7
622.878,919.0
623.01,916.9
623.142,915.9
623.274,919.1
623.407,919.4
623.539,920.7
623.671,922.7
623.803,915.9
623.935,921.0
624.068,918.2
624.2,923.0
624.332,922.6
624.464,923.5
624.597,921.1
624.729,922.3
624.861,922.1
624.993,921.8
625.125,920.5
625.258,923.4
625.39,926.9
625.522,921.7
625.654,919.5
625.786,926.0
625.918,923.8
626.051,924.4
626.183,927.3
626.315,925.8
626.447,931.3
626.579,935.5
626.711,941.0
626.844,951.4
626.976,970.3
627.108,1004.1
627.24,1024.6
627.372,1037.9
627.504,1037.0
627.636,1033.1
627.768,1017.7
627.901,1009.5
628.033,1000.2
628.165,1002.5
628.297,999.9
628.429,1011.6
628.561,1023.5
628.693,1044.1
628.825,1065.1
628.957,1088.7
629.089,1105.2
629.221,1130.2
629.354,1146.7
629.486,1156.2
629.618,1144.0
629.75,1140.7
629.882,1140.9
630.014,1119.4
630.146,1103.8
630.278,1091.8
630.41,1077.0
630.542,1065.0
630.674,1053.3
630.806,1035.9
630.938,1025.4
631.07,1015.7
631.202,998.8
631.334,990.0
631.466,983.1
631.598,976.1
631.73,970.7
631.862,970.8
631.994,969.7
632.126,978.4
632.258,985.5
632.39,999.6
632.522,992.5
632.654,973.0
632.786,959.2
632.918,956.7
633.05,962.6
633.182,980.4
633.314,995.1
633.446,1002.8
633.578,984.3
633.71,973.7
633.842,967.7
633.974,970.1
634.106,989.5
634.237,1010.7
634.369,1056.8
634.501,1097.7
634.633,1140.6
634.765,1177.4
634.897,1197.8
635.029,1210.2
635.161,1281.2
635.293,1432.0
635.425,1518.5
635.557,1523.7
635.689,1499.1
635.82,1471.0
635.952,1369.8
636.084,1261.0
636.216,1168.9
636.348,1093.9
636.48,1052.4
636.612,1023.6
636.744,1014.9
636.875,1000.8
637.007,982.1
637.139,971.4
637.271,967.0
637.403,962.6
637.535,963.3
637.667,961.6
637.798,955.0
637.93,952.4
638.062,945.9
638.194,949.9
638.326,947.3
638.458,946.7
638.589,941.0
638.721,941.3
638.853,944.6
638.985,941.8
639.117,941.5
639.248,943.9
639.38,943.1
639.512,944.1
639.644,947.2
639.776,953.9
639.907,958.0
640.039,955.1
640.171,952.7
640.303,939.0
640.435,945.5
640.566,943.7
640.698,942.0
640.83,943.2
640.962,941.0
641.093,945.7
641.225,948.3
641.357,951.4
641.489,953.9
641.62,950.1
641.752,949.2
641.884,943.6
642.016,940.9
642.147,935.6
642.279,939.3
642.411,942.0
642.543,935.3
642.674,931.7
642.806,935.6
642.938,937.1
643.069,936.5
643.201,935.9
643.333,936.8
643.465,937.4
643.596,936.3
643.728,935.2
643.86,939.2
643.991,928.3
644.123,936.9
644.255,935.6
644.386,937.5
644.518,939.6
644.65,935.7
644.781,935.7
644.913,933.6
645.045,936.0
645.176,933.3
645.308,935.8
645.44,936.5
645.571,935.8
645.703,937.2
645.835,936.7
645.966,936.4
646.098,937.2
646.23,938.6
646.361,937.0
646.493,937.8
646.625,935.8
646.756,936.6
646.888,939.3
647.019,936.1
647.151,935.4
647.283,936.9
647.414,937.6
647.546,935.2
647.678,938.5
647.809,936.8
647.941,937.4
648.072,938.2
648.204,935.1
648.336,938.1
648.467,939.3
648.599,940.1
648.73,943.9
648.862,937.3
648.993,936.4
649.125,940.9
649.257,936.8
649.388,937.2
649.52,938.0
649.651,937.4
649.783,939.3
649.914,940.9
650.046,939.1
650.178,941.1
650.309,939.7
650.441,937.5
650.572,936.3
650.704,936.8
650.835,940.1
650.967,936.5
651.098,938.0
651.23,939.6
651.361,940.3
651.493,941.4
651.625,940.6
651.756,937.8
651.888,941.5
652.019,944.0
652.151,939.2
652.282,945.8
652.414,937.8
652.545,939.2
652.677,948.1
652.808,942.9
652.94,940.0
653.071,941.4
653.203,944.0
653.334,943.5
653.466,940.3
653.597,937.1
653.729,937.2
653.86,942.3
653.992,941.1
654.123,944.0
654.255,945.3
654.386,939.0
654.518,940.9
654.649,942.3
654.78,942.5
654.912,938.9
655.043,943.4
655.175,942.3
655.306,941.4
655.438,943.2
655.569,939.9
655.701,939.8
655.832,944.8
655.964,938.1
656.095,942.0
656.226,944.6
656.358,944.1
656.489,945.2
656.621,941.6
656.752,942.8
656.884,946.2
657.015,946.0
657.146,943.1
657.278,948.6
657.409,945.6
657.541,945.5
657.672,944.1
657.804,944.2
657.935,946.0
658.066,941.0
658.198,943.5
658.329,944.5
658.461,945.9
658.592,949.6
658.723,943.6
658.855,945.2
658.986,949.2
659.118,945.9
659.249,948.0
659.38,946.0
659.512,945.6
659.643,942.2
659.774,952.3
659.906,946.7
660.037,945.6
660.169,947.1
660.3,946.3
660.431,948.5
660.563,943.2
660.694,945.8
660.825,947.0
660.957,944.7
661.088,948.2
661.22,944.0
661.351,950.3
661.482,940.8
661.614,951.0
661.745,949.0
661.876,942.7
662.008,947.7
662.139,950.2
662.27,947.1
662.402,949.3
662.533,947.1
662.664,949.1
662.796,950.3
662.927,948.3
663.058,944.6
