nm,Intensity
528.626,1860.06
528.711,1859.78
528.795,1860.42
528.879,1859.84
528.963,1860.96
529.048,1860.82
529.132,1860.9
529.216,1860.14
529.3,1859.98
529.385,1860.42
529.469,1859.94
529.553,1860.02
529.637,1860.26
529.721,1860.7
529.806,1860.46
529.89,1860.54
529.974,1859.68
530.058,1860.18
530.143,1860.82
530.227,1860.7
530.311,1860.92
530.395,1860.66
530.48,1860.44
530.564,1860.44
530.648,1860.04
530.732,1860.12
530.816,1860.54
530.901,1860.9
530.985,1861.12
531.069,1861.8
531.153,1861.68
531.237,1862.86
531.322,1863.32
531.406,1865.4
531.49,1867.68
531.574,1872.18
531.658,1889.68
531.743,1965.34
531.827,2295.08
531.911,3036.44
531.995,3837.44
532.079,4194.58
532.164,3892.7
532.248,2875.14
532.332,2134.26
532.416,1892.74
532.5,1865.08
532.585,1862.1
532.669,1861.56
532.753,1860.88
532.837,1861.54
532.921,1861.68
533.006,1860.12
533.09,1861.66
533.174,1860.78
533.258,1861.2
533.342,1861.96
533.426,1863.66
533.511,1867.76
533.595,1883.48
533.679,1908.96
533.763,1948.34
533.847,1989.84
533.931,2024.9
534.016,2053.12
534.1,2066.8
534.184,2072.68
534.268,2078.6
534.352,2070.74
534.436,2072.08
534.521,2079.06
534.605,2080.42
534.689,2088.1
534.773,2100.94
534.857,2113.18
534.941,2112.56
535.025,2114.96
535.11,2114.66
535.194,2121.86
535.278,2118.4
535.362,2114.34
535.446,2111.46
535.53,2096.78
535.614,2090.76
535.699,2090.26
535.783,2088.9
535.867,2082.4
535.951,2081.0
536.035,2084.56
536.119,2079.76
536.203,2079.48
536.287,2076.36
536.372,2071.76
536.456,2076.76
536.54,2079.84
536.624,2083.3
536.708,2089.96
536.792,2086.38
536.876,2088.58
536.96,2091.38
537.044,2092.26
537.129,2103.78
537.213,2102.96
537.297,2098.52
537.381,2091.4
537.465,2089.18
537.549,2080.88
537.633,2078.7
537.717,2082.76
537.801,2082.62
537.885,2081.9
537.97,2075.62
538.054,2076.4
538.138,2080.62
538.222,2079.68
538.306,2073.0
538.39,2082.74
538.474,2077.26
538.558,2073.48
538.642,2079.7
538.726,2080.96
538.81,2081.08
538.894,2076.48
538.979,2084.28
539.063,2088.14
539.147,2085.58
539.231,2090.72
539.315,2094.32
539.399,2093.64
539.483,2096.02
539.567,2087.2
539.651,2088.78
539.735,2089.6
539.819,2090.24
539.903,2089.44
539.987,2089.5
540.071,2086.1
540.155,2084.92
540.239,2088.26
540.324,2085.34
540.408,2082.26
540.492,2084.06
540.576,2088.62
540.66,2090.56
540.744,2090.24
540.828,2090.88
540.912,2096.14
540.996,2101.12
541.08,2099.04
541.164,2105.3
541.248,2102.32
541.332,2100.16
541.416,2099.56
541.5,2091.9
541.584,2092.24
541.668,2095.56
541.752,2095.64
541.836,2104.12
541.92,2100.74
542.004,2094.0
542.088,2094.26
542.172,2099.24
542.256,2093.72
542.34,2096.8
542.424,2096.66
542.508,2097.52
542.592,2101.76
542.676,2105.7
542.76,2102.58
542.844,2099.74
542.928,2103.64
543.012,2101.64
543.096,2106.72
543.18,2114.28
543.264,2121.74
543.348,2125.88
543.432,2131.84
543.516,2151.56
543.6,2163.6
543.684,2160.9
543.768,2159.12
543.852,2164.12
543.936,2165.28
544.02,2164.32
544.104,2166.88
544.188,2164.04
544.272,2149.54
544.356,2135.78
544.44,2126.94
544.524,2123.08
544.608,2119.9
544.692,2121.36
544.776,2116.44
544.86,2119.82
544.944,2126.78
545.028,2125.88
545.112,2135.96
545.196,2139.96
545.28,2134.96
545.364,2132.58
545.448,2132.8
545.532,2129.4
545.616,2131.46
545.7,2134.48
545.784,2129.9
545.867,2132.38
545.951,2129.56
546.035,2126.76
546.119,2132.5
546.203,2140.88
546.287,2143.92
546.371,2156.76
546.455,2158.74
546.539,2161.3
546.623,2158.24
546.707,2154.26
546.791,2149.88
546.875,2143.84
546.959,2145.62
547.043,2143.02
547.127,2139.32
547.21,2142.34
547.294,2146.92
547.378,2157.16
547.462,2156.98
547.546,2155.0
547.63,2145.48
547.714,2146.22
547.798,2140.8
547.882,2142.68
547.966,2138.2
548.05,2136.52
548.134,2140.94
548.217,2141.42
548.301,2142.78
548.385,2145.58
548.469,2148.44
548.553,2150.58
548.637,2144.7
548.721,2142.48
548.805,2136.4
548.889,2145.82
548.972,2143.1
549.056,2145.34
549.14,2147.6
549.224,2149.28
549.308,2147.04
549.392,2142.72
549.476,2145.52
549.56,2143.88
549.644,2141.7
549.727,2148.3
549.811,2150.92
549.895,2150.38
549.979,2145.2
550.063,2153.14
550.147,2157.68
550.231,2165.68
550.315,2164.48
550.398,2168.38
550.482,2155.5
550.566,2150.02
550.65,2154.84
550.734,2146.96
550.818,2152.48
550.902,2156.44
550.985,2156.08
551.069,2154.24
551.153,2156.46
551.237,2148.64
551.321,2148.94
551.405,2155.78
551.488,2156.82
551.572,2162.4
551.656,2159.9
551.74,2168.66
551.824,2169.94
551.908,2175.14
551.991,2169.66
552.075,2160.84
552.159,2162.08
552.243,2168.64
552.327,2157.98
552.411,2162.28
552.494,2159.16
552.578,2154.74
552.662,2150.44
552.746,2166.58
552.83,2158.0
552.914,2156.06
552.997,2159.7
553.081,2157.22
553.165,2160.06
553.249,2156.0
553.333,2157.02
553.416,2158.46
553.5,2164.22
553.584,2159.8
553.668,2159.24
553.752,2164.12
553.835,2169.18
553.919,2174.22
554.003,2169.16
554.087,2173.26
554.171,2175.3
554.254,2187.84
554.338,2184.5
554.422,2186.06
554.506,2184.66
554.589,2184.46
554.673,2179.66
554.757,2184.58
554.841,2186.26
554.925,2194.48
555.008,2193.28
555.092,2191.2
555.176,2196.88
555.26,2196.38
555.343,2191.14
555.427,2191.6
555.511,2191.0
555.595,2196.1
555.679,2200.42
555.762,2220.4
555.846,2244.74
555.93,2268.36
556.014,2294.82
556.097,2300.64
556.181,2299.2
556.265,2263.48
556.349,2236.02
556.432,2215.42
556.516,2215.9
556.6,2221.5
556.684,2221.98
556.767,2231.42
556.851,2241.84
556.935,2257.0
557.018,2268.04
557.102,2269.48
557.186,2256.36
557.27,2246.2
557.353,2221.12
557.437,2214.16
557.521,2207.42
557.605,2207.42
557.688,2215.68
557.772,2215.92
557.856,2205.0
557.939,2202.76
558.023,2206.36
558.107,2204.4
558.191,2201.74
558.274,2207.2
558.358,2206.36
558.442,2210.7
558.525,2204.4
558.609,2208.14
558.693,2210.66
558.776,2209.78
558.86,2220.98
558.944,2223.58
559.028,2219.98
559.111,2210.12
559.195,2209.52
559.279,2214.28
559.362,2211.92
559.446,2219.54
559.53,2221.98
559.613,2220.32
559.697,2219.78
559.781,2227.88
559.864,2228.16
559.948,2240.4
560.032,2235.32
560.115,2249.88
560.199,2250.94
560.283,2240.24
560.366,2230.96
560.45,2237.12
560.534,2237.74
560.617,2241.82
560.701,2240.06
560.785,2249.56
560.868,2255.12
560.952,2268.08
561.036,2276.94
561.119,2294.24
561.203,2294.2
561.287,2291.04
561.37,2282.0
561.454,2269.7
561.538,2259.5
561.621,2258.56
561.705,2268.92
561.789,2275.76
561.872,2291.86
561.956,2318.1
562.039,2363.76
562.123,2436.2
562.207,2522.32
562.29,2570.24
562.374,2545.42
562.458,2458.4
562.541,2364.72
562.625,2309.58
562.708,2285.66
562.792,2271.32
562.876,2264.68
562.959,2266.96
563.043,2276.54
563.127,2268.44
563.21,2280.68
563.294,2296.22
563.377,2287.46
563.461,2289.98
563.545,2284.64
563.628,2285.02
563.712,2285.42
563.795,2274.6
563.879,2260.54
563.963,2264.26
564.046,2253.52
564.13,2252.8
564.213,2263.48
564.297,2257.64
564.38,2253.34
564.464,2260.68
564.548,2263.68
564.631,2265.42
564.715,2261.82
564.798,2262.08
564.882,2271.24
564.966,2267.76
565.049,2264.76
565.133,2261.52
565.216,2270.5
565.3,2278.6
565.383,2285.72
565.467,2281.74
565.551,2274.68
565.634,2272.92
565.718,2282.36
565.801,2282.88
565.885,2270.94
565.968,2283.58
566.052,2286.66
566.135,2289.34
566.219,2295.02
566.302,2299.3
566.386,2319.94
566.47,2322.34
566.553,2328.42
566.637,2332.72
566.72,2343.54
566.804,2359.48
566.887,2362.94
566.971,2365.0
567.054,2358.38
567.138,2354.74
567.221,2356.44
567.305,2366.9
567.388,2368.38
567.472,2358.24
567.555,2327.36
567.639,2317.36
567.722,2312.34
567.806,2295.86
567.889,2296.66
567.973,2295.72
568.057,2295.58
568.14,2298.2
568.224,2292.56
568.307,2286.64
568.391,2290.52
568.474,2303.74
568.558,2310.64
568.641,2311.68
568.725,2309.56
568.808,2324.96
568.892,2324.56
568.975,2328.78
569.058,2335.2
569.142,2334.8
569.225,2321.78
569.309,2318.68
569.392,2312.36
569.476,2311.06
569.559,2301.14
569.643,2308.82
569.726,2309.7
569.81,2317.64
569.893,2309.54
569.977,2306.32
570.06,2314.3
570.144,2322.12
570.227,2314.54
570.311,2317.6
570.394,2309.48
570.477,2306.06
570.561,2299.82
570.644,2305.68
570.728,2308.9
570.811,2298.4
570.895,2304.42
570.978,2304.98
571.062,2304.94
571.145,2308.3
571.229,2319.42
571.312,2318.6
571.395,2320.08
571.479,2324.58
571.562,2331.72
571.646,2328.74
571.729,2336.3
571.813,2335.0
571.896,2330.98
571.979,2334.3
572.063,2334.64
572.146,2337.64
572.23,2345.52
572.313,2350.34
572.397,2369.04
572.48,2387.56
572.563,2403.0
572.647,2426.28
572.73,2427.12
572.814,2405.0
572.897,2397.32
572.98,2380.22
573.064,2358.84
573.147,2349.84
573.231,2354.82
573.314,2350.64
573.397,2362.08
573.481,2370.34
573.564,2371.74
573.648,2373.04
573.731,2369.82
573.814,2356.92
573.898,2353.18
573.981,2344.78
574.064,2349.84
574.148,2355.16
574.231,2336.38
574.315,2352.22
574.398,2351.1
574.481,2353.12
574.565,2367.36
574.648,2365.9
574.731,2369.9
574.815,2353.52
574.898,2351.38
574.982,2347.92
575.065,2346.48
575.148,2340.52
575.232,2336.66
575.315,2342.28
575.398,2328.52
575.482,2329.84
575.565,2332.48
575.648,2346.46
575.732,2337.16
575.815,2341.66
575.898,2356.06
575.982,2373.8
576.065,2375.92
576.148,2385.26
576.232,2398.68
576.315,2397.88
576.398,2403.62
576.482,2401.28
576.565,2416.74
576.648,2426.14
576.732,2454.58
576.815,2475.3
576.898,2481.48
576.982,2473.36
577.065,2456.2
577.148,2438.02
577.232,2412.94
577.315,2393.18
577.398,2374.36
577.481,2360.52
577.565,2351.42
577.648,2343.04
577.731,2342.9
577.815,2341.72
577.898,2341.04
577.981,2334.74
578.065,2343.12
578.148,2343.64
578.231,2326.92
578.314,2326.64
578.398,2333.72
578.481,2340.8
578.564,2334.98
578.648,2335.74
578.731,2341.18
578.814,2345.34
578.897,2346.24
578.981,2339.76
579.064,2339.12
579.147,2349.8
579.23,2363.62
579.314,2353.64
579.397,2349.94
579.48,2352.58
579.563,2353.46
579.647,2344.5
579.73,2348.82
579.813,2341.66
579.896,2346.64
579.98,2343.06
580.063,2353.12
580.146,2349.22
580.229,2348.12
580.313,2339.26
580.396,2344.96
580.479,2359.6
580.562,2350.26
580.646,2357.94
580.729,2345.38
580.812,2348.16
580.895,2350.0
580.979,2345.1
581.062,2351.98
581.145,2366.06
581.228,2354.46
581.311,2357.54
581.395,2356.5
581.478,2355.48
581.561,2356.84
581.644,2350.5
581.728,2346.14
581.811,2355.64
581.894,2349.48
581.977,2357.28
582.06,2361.58
582.144,2357.48
582.227,2360.54
582.31,2354.64
582.393,2351.84
582.476,2359.82
582.56,2355.06
582.643,2354.84
582.726,2355.56
582.809,2349.72
582.892,2359.5
582.975,2366.4
583.059,2367.36
583.142,2363.82
583.225,2356.68
583.308,2347.06
583.391,2355.92
583.475,2369.38
583.558,2364.4
583.641,2354.14
583.724,2354.56
583.807,2357.9
583.89,2360.66
583.973,2360.34
584.057,2368.38
584.14,2358.02
584.223,2358.72
584.306,2356.76
584.389,2355.74
584.472,2358.46
584.556,2358.46
584.639,2356.84
584.722,2360.36
584.805,2363.04
584.888,2370.1
584.971,2367.0
585.054,2358.08
585.138,2354.52
585.221,2364.54
585.304,2361.14
585.387,2350.22
585.47,2352.44
585.553,2359.78
585.636,2369.16
585.719,2354.5
585.802,2346.1
585.886,2349.66
585.969,2351.16
586.052,2353.06
586.135,2356.2
586.218,2352.34
586.301,2353.86
586.384,2360.16
586.467,2358.76
586.55,2357.54
586.634,2357.98
586.717,2354.02
586.8,2358.64
586.883,2367.04
586.966,2358.66
587.049,2359.26
587.132,2365.36
587.215,2366.96
587.298,2364.96
587.381,2371.2
587.464,2369.52
587.548,2366.5
587.631,2359.66
587.714,2361.42
587.797,2363.4
587.88,2365.36
587.963,2370.98
588.046,2367.14
588.129,2367.14
588.212,2370.86
588.295,2371.6
588.378,2366.2
588.461,2371.88
588.544,2369.86
588.627,2366.86
588.71,2364.74
588.793,2363.28
588.876,2355.56
588.96,2354.96
589.043,2357.72
589.126,2358.52
589.209,2362.2
589.292,2379.56
589.375,2361.16
589.458,2351.98
589.541,2356.68
589.624,2351.82
589.707,2350.06
589.79,2358.58
589.873,2362.7
589.956,2356.2
590.039,2365.32
590.122,2356.5
590.205,2359.14
590.288,2358.78
590.371,2366.68
590.454,2375.04
590.537,2365.82
590.62,2370.02
590.703,2367.3
590.786,2356.9
590.869,2360.32
590.952,2356.48
591.035,2361.48
591.118,2362.56
591.201,2380.38
591.284,2376.32
591.367,2372.82
591.45,2372.12
591.533,2375.52
591.616,2390.02
591.699,2383.36
591.782,2377.56
591.865,2374.24
591.948,2363.22
592.031,2365.44
592.114,2371.02
592.197,2373.64
592.28,2374.5
592.363,2370.96
592.446,2373.06
592.529,2380.18
592.611,2391.34
592.694,2387.28
592.777,2380.0
592.86,2386.42
592.943,2373.92
593.026,2367.54
593.109,2358.66
593.192,2362.3
593.275,2380.2
593.358,2378.44
593.441,2380.3
593.524,2378.4
593.607,2371.2
593.69,2366.44
593.773,2364.96
593.856,2368.92
593.939,2357.48
594.021,2362.2
594.104,2386.72
594.187,2369.92
594.27,2372.54
594.353,2378.74
594.436,2358.84
594.519,2372.12
594.602,2374.88
594.685,2379.2
594.768,2374.74
594.851,2368.22
594.933,2365.58
595.016,2379.62
595.099,2375.98
595.182,2368.6
595.265,2374.96
595.348,2375.46
595.431,2375.68
595.514,2381.26
595.597,2374.68
595.68,2366.6
595.762,2372.36
595.845,2384.18
595.928,2378.08
596.011,2375.22
596.094,2383.46
596.177,2376.56
596.26,2378.1
596.342,2389.72
596.425,2387.88
596.508,2376.78
596.591,2371.2
596.674,2372.08
596.757,2387.7
596.84,2385.88
596.923,2379.86
597.005,2374.1
597.088,2374.1
597.171,2368.76
597.254,2378.8
597.337,2380.2
597.42,2380.06
597.502,2377.0
597.585,2369.9
597.668,2367.9
597.751,2385.58
597.834,2382.84
597.917,2384.12
597.999,2377.3
598.082,2369.26
598.165,2379.54
598.248,2370.36
598.331,2367.64
598.414,2376.2
598.496,2376.54
598.579,2379.78
598.662,2377.44
598.745,2370.94
598.828,2380.72
598.91,2376.06
598.993,2381.18
599.076,2379.76
599.159,2375.7
599.242,2384.44
599.324,2365.04
599.407,2362.18
599.49,2370.36
599.573,2374.34
599.656,2378.7
599.738,2385.12
599.821,2391.3
599.904,2383.12
599.987,2379.2
600.069,2380.88
600.152,2377.92
600.235,2379.62
600.318,2371.9
600.401,2370.24
600.483,2375.64
600.566,2381.32
600.649,2374.36
600.732,2374.5
600.814,2373.3
600.897,2386.66
600.98,2378.42
601.063,2388.78
601.145,2382.52
601.228,2383.54
601.311,2365.24
601.394,2375.14
601.476,2368.58
601.559,2372.34
601.642,2374.4
601.725,2370.3
601.807,2381.58
601.89,2377.46
601.973,2378.1
602.055,2373.3
602.138,2360.98
602.221,2366.6
602.304,2379.4
602.386,2377.32
602.469,2374.9
602.552,2376.78
602.635,2381.56
602.717,2377.5
602.8,2373.8
602.883,2377.34
602.965,2377.64
603.048,2377.94
603.131,2384.66
603.213,2376.58
603.296,2381.2
603.379,2392.6
603.462,2384.96
603.544,2374.4
603.627,2367.48
603.71,2371.84
603.792,2378.0
603.875,2372.28
603.958,2383.4
604.04,2374.76
604.123,2375.9
604.206,2377.38
604.288,2367.04
604.371,2373.66
604.454,2377.88
604.536,2379.5
604.619,2374.3
604.702,2370.78
604.784,2374.18
604.867,2381.18
604.95,2378.2
605.032,2377.84
605.115,2370.58
605.198,2371.48
605.28,2372.86
605.363,2375.76
605.446,2371.48
605.528,2378.52
605.611,2368.82
605.693,2377.6
605.776,2380.52
605.859,2375.8
605.941,2371.94
606.024,2371.34
606.107,2370.02
606.189,2365.28
606.272,2376.54
606.354,2378.3
606.437,2370.5
606.52,2365.2
606.602,2375.98
606.685,2378.36
606.767,2384.52
606.85,2368.1
606.933,2366.78
607.015,2375.78
607.098,2374.38
607.181,2371.76
607.263,2376.72
607.346,2376.1
607.428,2372.84
607.511,2372.0
607.593,2375.54
607.676,2372.42
607.759,2379.7
607.841,2382.02
607.924,2376.4
608.006,2378.64
608.089,2379.0
608.172,2369.54
608.254,2358.76
608.337,2367.28
608.419,2378.08
608.502,2373.46
608.584,2370.9
608.667,2371.36
608.749,2381.48
608.832,2384.7
608.915,2377.16
608.997,2365.18
609.08,2362.76
609.162,2372.2
609.245,2377.38
609.327,2365.48
609.41,2368.48
609.492,2369.86
609.575,2381.36
609.657,2378.68
609.74,2380.76
609.823,2379.06
609.905,2375.74
609.988,2360.58
610.07,2363.4
610.153,2362.28
610.235,2377.84
610.318,2372.72
610.4,2377.14
610.483,2381.42
610.565,2385.18
610.648,2374.8
610.73,2365.92
610.813,2372.26
610.895,2372.4
610.978,2369.4
611.06,2380.8
611.143,2383.68
611.225,2377.1
611.308,2368.68
611.39,2369.94
611.473,2360.42
611.555,2364.58
611.638,2367.1
611.72,2374.24
611.803,2377.8
611.885,2377.14
611.968,2376.64
612.05,2371.92
612.133,2372.28
612.215,2357.94
612.297,2350.68
612.38,2366.68
612.462,2370.38
612.545,2366.96
612.627,2366.78
612.71,2362.82
612.792,2358.5
612.875,2367.4
612.957,2371.22
613.04,2363.68
613.122,2366.84
613.204,2363.26
613.287,2361.98
613.369,2354.4
613.452,2359.14
613.534,2363.82
613.617,2367.3
613.699,2356.76
613.781,2360.86
613.864,2371.26
613.946,2369.9
614.029,2363.04
614.111,2365.28
614.194,2361.36
614.276,2369.64
614.358,2375.06
614.441,2367.84
614.523,2367.5
614.606,2365.0
614.688,2365.1
614.77,2358.42
614.853,2363.36
614.935,2369.08
615.018,2370.24
615.1,2371.7
615.182,2373.36
615.265,2358.48
615.347,2349.44
615.43,2362.24
615.512,2367.7
615.594,2376.4
615.677,2355.78
615.759,2350.68
615.841,2359.26
615.924,2371.08
616.006,2367.76
616.089,2355.02
616.171,2367.26
616.253,2360.28
616.336,2358.2
616.418,2357.38
616.5,2350.56
616.583,2359.54
616.665,2361.12
616.747,2356.74
616.83,2366.02
616.912,2371.12
616.994,2365.7
617.077,2355.28
617.159,2363.92
617.242,2376.82
617.324,2363.38
617.406,2364.7
617.489,2365.28
617.571,2360.74
617.653,2364.3
617.735,2374.94
617.818,2371.46
617.9,2358.48
617.982,2353.58
618.065,2362.12
618.147,2365.1
618.229,2360.64
618.312,2365.6
618.394,2368.46
618.476,2358.14
618.559,2354.28
618.641,2358.64
618.723,2360.84
618.805,2373.46
618.888,2373.6
618.97,2370.3
619.052,2364.48
619.135,2357.16
619.217,2358.56
619.299,2365.26
619.381,2374.52
619.464,2370.94
619.546,2368.78
619.628,2369.44
619.711,2372.52
619.793,2372.76
619.875,2366.0
619.957,2372.24
620.04,2371.18
620.122,2367.3
620.204,2365.48
620.286,2371.76
620.369,2373.88
620.451,2377.52
620.533,2377.82
620.615,2374.76
620.698,2363.94
620.78,2357.06
620.862,2364.28
620.944,2366.74
621.027,2363.96
621.109,2360.74
621.191,2361.38
621.273,2367.24
621.356,2374.72
621.438,2382.44
621.52,2372.08
621.602,2361.58
621.684,2358.72
621.767,2369.62
621.849,2379.24
621.931,2384.16
622.013,2392.7
622.095,2404.78
622.178,2395.06
622.26,2384.56
622.342,2389.0
622.424,2392.82
622.506,2393.2
622.589,2399.28
622.671,2395.3
622.753,2379.62
622.835,2372.64
622.917,2370.42
623.0,2372.82
623.082,2365.78
623.164,2363.88
623.246,2362.02
623.328,2368.26
623.41,2372.74
623.493,2365.32
623.575,2356.64
623.657,2350.26
623.739,2354.94
623.821,2354.48
623.903,2375.98
623.986,2358.96
624.068,2355.5
624.15,2350.4
624.232,2349.9
624.314,2348.24
624.396,2357.8
624.478,2360.44
624.561,2350.8
624.643,2348.74
624.725,2353.86
624.807,2359.3
624.889,2353.8
624.971,2358.14
625.053,2353.9
625.136,2349.98
625.218,2349.2
625.3,2353.32
625.382,2355.26
625.464,2351.64
625.546,2349.22
625.628,2349.5
625.71,2356.0
625.792,2353.98
625.875,2353.0
625.957,2354.86
626.039,2360.14
626.121,2370.0
626.203,2377.5
626.285,2375.16
626.367,2398.5
626.449,2420.78
626.531,2440.96
626.613,2464.34
626.695,2517.2
626.778,2545.1
626.86,2557.88
626.942,2557.56
627.024,2551.82
627.106,2536.54
627.188,2497.38
627.27,2473.7
627.352,2456.28
627.434,2465.98
627.516,2463.7
627.598,2482.96
627.68,2524.62
627.762,2576.58
627.844,2625.8
627.926,2671.94
628.008,2714.92
628.09,2740.64
628.172,2764.62
628.255,2774.14
628.337,2794.92
628.419,2799.64
628.501,2840.1
628.583,2865.74
628.665,2879.14
628.747,2855.64
628.829,2840.36
628.911,2818.48
628.993,2776.12
629.075,2749.16
629.157,2736.16
629.239,2739.16
629.321,2750.14
629.403,2760.92
629.485,2736.24
629.567,2720.4
629.649,2708.4
629.731,2672.14
629.813,2653.96
629.895,2632.74
629.977,2616.4
630.059,2612.86
630.141,2632.34
630.223,2640.4
630.305,2641.66
630.387,2618.66
630.469,2583.16
630.551,2575.24
630.633,2536.78
630.715,2519.46
630.797,2491.6
630.878,2490.5
630.96,2501.56
631.042,2521.08
631.124,2537.44
631.206,2589.46
631.288,2611.24
631.37,2632.82
631.452,2637.22
631.534,2646.46
631.616,2628.28
631.698,2620.62
631.78,2614.28
631.862,2603.5
631.944,2572.32
632.026,2529.6
632.108,2493.26
632.19,2461.86
632.272,2444.08
632.353,2432.16
632.435,2408.3
632.517,2386.68
632.599,2371.98
632.681,2368.38
632.763,2352.58
632.845,2348.58
632.927,2351.54
633.009,2351.0
633.091,2344.52
633.173,2344.34
633.254,2338.36
633.336,2337.78
633.418,2339.1
633.5,2339.32
633.582,2331.86
633.664,2326.4
633.746,2332.0
633.828,2328.48
633.91,2327.26
633.991,2331.22
634.073,2311.34
634.155,2301.42
634.237,2299.72
634.319,2307.3
634.401,2316.76
634.483,2308.4
634.564,2295.28
