cm-1,A
4000.0,0.002
3999.0,0.002
3998.0,0.0021
3997.0,0.0021
3996.0,0.0021
3995.0,0.0021
3994.0,0.002
3993.0,0.002
3992.0,0.002
3991.0,0.002
3990.0,0.002
3989.0,0.0021
3988.0,0.0021
3987.0,0.0021
3986.0,0.0021
3985.0,0.002
3984.0,0.002
3983.0,0.002
3982.0,0.0019
3981.0,0.0019
3980.0,0.0019
3979.0,0.0019
3978.0,0.002
3977.0,0.002
3976.0,0.002
3975.0,0.002
3974.0,0.0019
3973.0,0.0019
3972.0,0.0019
3971.0,0.002
3970.0,0.002
3969.0,0.002
3968.0,0.002
3967.0,0.002
3966.0,0.002
3965.0,0.0021
3964.0,0.0021
3963.0,0.0021
3962.0,0.0021
3961.0,0.0021
3960.0,0.0021
3959.0,0.0021
3958.0,0.002
3957.0,0.0019
3956.0,0.0018
3955.0,0.0018
3954.0,0.0019
3953.0,0.0019
3952.0,0.002
3951.0,0.0021
3950.0,0.0022
3949.0,0.0022
3948.0,0.0023
3947.0,0.0022
3946.0,0.0022
3945.0,0.002
3944.0,0.0019
3943.0,0.0019
3942.0,0.002
3941.0,0.0021
3940.0,0.0022
3939.0,0.0022
3938.0,0.0022
3937.0,0.0021
3936.0,0.002
3935.0,0.002
3934.0,0.0019
3933.0,0.002
3932.0,0.002
3931.0,0.0021
3930.0,0.0022
3929.0,0.0022
3928.0,0.0022
3927.0,0.0023
3926.0,0.0023
3925.0,0.0023
3924.0,0.0022
3923.0,0.0021
3922.0,0.0021
3921.0,0.0022
3920.0,0.0022
3919.0,0.0022
3918.0,0.0022
3917.0,0.0022
3916.0,0.0021
3915.0,0.002
3914.0,0.0019
3913.0,0.0019
3912.0,0.0018
3911.0,0.0018
3910.0,0.0018
3909.0,0.0019
3908.0,0.0019
3907.0,0.0019
3906.0,0.002
3905.0,0.0021
3904.0,0.0023
3903.0,0.0023
3902.0,0.0023
3901.0,0.0022
3900.0,0.0021
3899.0,0.0021
3898.0,0.0021
3897.0,0.002
3896.0,0.002
3895.0,0.002
3894.0,0.002
3893.0,0.0021
3892.0,0.0021
3891.0,0.0021
3890.0,0.0021
3889.0,0.0021
3888.0,0.0021
3887.0,0.0021
3886.0,0.0022
3885.0,0.0023
3884.0,0.0024
3883.0,0.0024
3882.0,0.0024
3881.0,0.0024
3880.0,0.0023
3879.0,0.0023
3878.0,0.0024
3877.0,0.0024
3876.0,0.0023
3875.0,0.0023
3874.0,0.0022
3873.0,0.0022
3872.0,0.0022
3871.0,0.0023
3870.0,0.0024
3869.0,0.0024
3868.0,0.0024
3867.0,0.0024
3866.0,0.0024
3865.0,0.0025
3864.0,0.0026
3863.0,0.0026
3862.0,0.0026
3861.0,0.0024
3860.0,0.0023
3859.0,0.0022
3858.0,0.0021
3857.0,0.002
3856.0,0.002
3855.0,0.0021
3854.0,0.0021
3853.0,0.002
3852.0,0.002
3851.0,0.0021
3850.0,0.0022
3849.0,0.0022
3848.0,0.0022
3847.0,0.0022
3846.0,0.0023
3845.0,0.0023
3844.0,0.0023
3843.0,0.0023
3842.0,0.0022
3841.0,0.0021
3840.0,0.002
3839.0,0.0019
3838.0,0.002
3837.0,0.0021
3836.0,0.0022
3835.0,0.0023
3834.0,0.0023
3833.0,0.0023
3832.0,0.0022
3831.0,0.0023
3830.0,0.0024
3829.0,0.0025
3828.0,0.0026
3827.0,0.0026
3826.0,0.0026
3825.0,0.0026
3824.0,0.0026
3823.0,0.0027
3822.0,0.0028
3821.0,0.0028
3820.0,0.0027
3819.0,0.0025
3818.0,0.0023
3817.0,0.0021
3816.0,0.002
3815.0,0.002
3814.0,0.0021
3813.0,0.0022
3812.0,0.0023
3811.0,0.0024
3810.0,0.0024
3809.0,0.0024
3808.0,0.0024
3807.0,0.0024
3806.0,0.0023
3805.0,0.0023
3804.0,0.0023
3803.0,0.0023
3802.0,0.0024
3801.0,0.0025
3800.0,0.0025
3799.0,0.0026
3798.0,0.0026
3797.0,0.0026
3796.0,0.0025
3795.0,0.0025
3794.0,0.0024
3793.0,0.0024
3792.0,0.0024
3791.0,0.0024
3790.0,0.0024
3789.0,0.0024
3788.0,0.0025
3787.0,0.0025
3786.0,0.0025
3785.0,0.0026
3784.0,0.0026
3783.0,0.0026
3782.0,0.0026
3781.0,0.0026
3780.0,0.0026
3779.0,0.0025
3778.0,0.0025
3777.0,0.0024
3776.0,0.0024
3775.0,0.0024
3774.0,0.0024
3773.0,0.0024
3772.0,0.0024
3771.0,0.0024
3770.0,0.0024
3769.0,0.0024
3768.0,0.0024
3767.0,0.0024
3766.0,0.0024
3765.0,0.0024
3764.0,0.0025
3763.0,0.0025
3762.0,0.0025
3761.0,0.0026
3760.0,0.0026
3759.0,0.0026
3758.0,0.0025
3757.0,0.0025
3756.0,0.0024
3755.0,0.0023
3754.0,0.0023
3753.0,0.0022
3752.0,0.0021
3751.0,0.002
3750.0,0.002
3749.0,0.002
3748.0,0.0021
3747.0,0.0021
3746.0,0.0021
3745.0,0.0021
3744.0,0.002
3743.0,0.0021
3742.0,0.0022
3741.0,0.0023
3740.0,0.0023
3739.0,0.0024
3738.0,0.0024
3737.0,0.0024
3736.0,0.0024
3735.0,0.0023
3734.0,0.0022
3733.0,0.002
3732.0,0.0019
3731.0,0.0019
3730.0,0.0019
3729.0,0.0019
3728.0,0.0019
3727.0,0.0019
3726.0,0.0019
3725.0,0.002
3724.0,0.0021
3723.0,0.002
3722.0,0.002
3721.0,0.002
3720.0,0.002
3719.0,0.0021
3718.0,0.0022
3717.0,0.0023
3716.0,0.0022
3715.0,0.0022
3714.0,0.0021
3713.0,0.0021
3712.0,0.0021
3711.0,0.0022
3710.0,0.0022
3709.0,0.0021
3708.0,0.0021
3707.0,0.002
3706.0,0.002
3705.0,0.002
3704.0,0.002
3703.0,0.002
3702.0,0.002
3701.0,0.0019
3700.0,0.0019
3699.0,0.0018
3698.0,0.0018
3697.0,0.0018
3696.0,0.0017
3695.0,0.0016
3694.0,0.0015
3693.0,0.0015
3692.0,0.0016
3691.0,0.0017
3690.0,0.0018
3689.0,0.0018
3688.0,0.0018
3687.0,0.0018
3686.0,0.0018
3685.0,0.0018
3684.0,0.0017
3683.0,0.0017
3682.0,0.0017
3681.0,0.0017
3680.0,0.0017
3679.0,0.0016
3678.0,0.0016
3677.0,0.0017
3676.0,0.0018
3675.0,0.0019
3674.0,0.0019
3673.0,0.0018
3672.0,0.0017
3671.0,0.0016
3670.0,0.0015
3669.0,0.0015
3668.0,0.0014
3667.0,0.0014
3666.0,0.0013
3665.0,0.0012
3664.0,0.0011
3663.0,0.001
3662.0,0.0009
3661.0,0.0008
3660.0,0.0007
3659.0,0.0005
3658.0,0.0005
3657.0,0.0004
3656.0,0.0004
3655.0,0.0004
3654.0,0.0004
3653.0,0.0003
3652.0,0.0003
3651.0,0.0003
3650.0,0.0003
3649.0,0.0003
3648.0,0.0001
3647.0,-0.0
3646.0,-0.0002
3645.0,-0.0003
3644.0,-0.0004
3643.0,-0.0006
3642.0,-0.0009
3641.0,-0.001
3640.0,-0.0012
3639.0,-0.0013
3638.0,-0.0014
3637.0,-0.0016
3636.0,-0.0017
3635.0,-0.0019
3634.0,-0.0021
3633.0,-0.0023
3632.0,-0.0025
3631.0,-0.0028
3630.0,-0.003
3629.0,-0.0031
3628.0,-0.0031
3627.0,-0.0032
3626.0,-0.0032
3625.0,-0.0033
3624.0,-0.0034
3623.0,-0.0034
3622.0,-0.0034
3621.0,-0.0034
3620.0,-0.0034
3619.0,-0.0035
3618.0,-0.0035
3617.0,-0.0035
3616.0,-0.0036
3615.0,-0.0037
3614.0,-0.0039
3613.0,-0.0043
3612.0,-0.0047
3611.0,-0.0051
3610.0,-0.0053
3609.0,-0.0055
3608.0,-0.0055
3607.0,-0.0055
3606.0,-0.0056
3605.0,-0.0057
3604.0,-0.0058
3603.0,-0.006
3602.0,-0.0062
3601.0,-0.0064
3600.0,-0.0066
3599.0,-0.0069
3598.0,-0.007
3597.0,-0.0071
3596.0,-0.0072
3595.0,-0.0073
3594.0,-0.0074
3593.0,-0.0076
3592.0,-0.0079
3591.0,-0.0081
3590.0,-0.0083
3589.0,-0.0084
3588.0,-0.0085
3587.0,-0.0086
3586.0,-0.0087
3585.0,-0.0088
3584.0,-0.0089
3583.0,-0.0089
3582.0,-0.009
3581.0,-0.0092
3580.0,-0.0094
3579.0,-0.0096
3578.0,-0.0098
3577.0,-0.01
3576.0,-0.01
3575.0,-0.0101
3574.0,-0.0101
3573.0,-0.0102
3572.0,-0.0104
3571.0,-0.0106
3570.0,-0.0109
3569.0,-0.0111
3568.0,-0.0112
3567.0,-0.0113
3566.0,-0.0114
3565.0,-0.0115
3564.0,-0.0117
3563.0,-0.012
3562.0,-0.0122
3561.0,-0.0124
3560.0,-0.0126
3559.0,-0.0127
3558.0,-0.0128
3557.0,-0.0128
3556.0,-0.0128
3555.0,-0.0129
3554.0,-0.0129
3553.0,-0.013
3552.0,-0.0132
3551.0,-0.0134
3550.0,-0.0136
3549.0,-0.0138
3548.0,-0.014
3547.0,-0.0141
3546.0,-0.0142
3545.0,-0.0143
3544.0,-0.0145
3543.0,-0.0148
3542.0,-0.015
3541.0,-0.0152
3540.0,-0.0154
3539.0,-0.0155
3538.0,-0.0155
3537.0,-0.0156
3536.0,-0.0157
3535.0,-0.016
3534.0,-0.0163
3533.0,-0.0165
3532.0,-0.0167
3531.0,-0.0169
3530.0,-0.017
3529.0,-0.0171
3528.0,-0.0172
3527.0,-0.0173
3526.0,-0.0174
3525.0,-0.0176
3524.0,-0.0178
3523.0,-0.0179
3522.0,-0.0182
3521.0,-0.0184
3520.0,-0.0187
3519.0,-0.019
3518.0,-0.0192
3517.0,-0.0195
3516.0,-0.0196
3515.0,-0.0197
3514.0,-0.0198
3513.0,-0.0199
3512.0,-0.0201
3511.0,-0.0203
3510.0,-0.0205
3509.0,-0.0206
3508.0,-0.0208
3507.0,-0.0208
3506.0,-0.0209
3505.0,-0.021
3504.0,-0.0212
3503.0,-0.0214
3502.0,-0.0218
3501.0,-0.0221
3500.0,-0.0224
3499.0,-0.0227
3498.0,-0.0229
3497.0,-0.023
3496.0,-0.023
3495.0,-0.0232
3494.0,-0.0234
3493.0,-0.0236
3492.0,-0.0237
3491.0,-0.0238
3490.0,-0.0239
3489.0,-0.0241
3488.0,-0.0243
3487.0,-0.0247
3486.0,-0.025
3485.0,-0.0252
3484.0,-0.0254
3483.0,-0.0256
3482.0,-0.0259
3481.0,-0.0261
3480.0,-0.0263
3479.0,-0.0265
3478.0,-0.0267
3477.0,-0.0269
3476.0,-0.0271
3475.0,-0.0273
3474.0,-0.0275
3473.0,-0.0276
3472.0,-0.0277
3471.0,-0.0279
3470.0,-0.0282
3469.0,-0.0284
3468.0,-0.0287
3467.0,-0.0289
3466.0,-0.0292
3465.0,-0.0293
3464.0,-0.0294
3463.0,-0.0295
3462.0,-0.0297
3461.0,-0.0298
3460.0,-0.0301
3459.0,-0.0304
3458.0,-0.0307
3457.0,-0.031
3456.0,-0.0314
3455.0,-0.0317
3454.0,-0.0319
3453.0,-0.032
3452.0,-0.0321
3451.0,-0.0322
3450.0,-0.0324
3449.0,-0.0326
3448.0,-0.0328
3447.0,-0.0331
3446.0,-0.0334
3445.0,-0.0337
3444.0,-0.0339
3443.0,-0.034
3442.0,-0.0341
3441.0,-0.0342
3440.0,-0.0344
3439.0,-0.0346
3438.0,-0.0349
3437.0,-0.0352
3436.0,-0.0354
3435.0,-0.0356
3434.0,-0.0358
3433.0,-0.0361
3432.0,-0.0364
3431.0,-0.0366
3430.0,-0.0368
3429.0,-0.037
3428.0,-0.0372
3427.0,-0.0373
3426.0,-0.0375
3425.0,-0.0377
3424.0,-0.0378
3423.0,-0.038
3422.0,-0.0383
3421.0,-0.0387
3420.0,-0.0391
3419.0,-0.0395
3418.0,-0.0398
3417.0,-0.04
3416.0,-0.04
3415.0,-0.0401
3414.0,-0.0403
3413.0,-0.0406
3412.0,-0.041
3411.0,-0.0413
3410.0,-0.0415
3409.0,-0.0416
3408.0,-0.0418
3407.0,-0.042
3406.0,-0.0422
3405.0,-0.0425
3404.0,-0.0427
3403.0,-0.0429
3402.0,-0.0431
3401.0,-0.0434
3400.0,-0.0437
3399.0,-0.044
3398.0,-0.0442
3397.0,-0.0445
3396.0,-0.0448
3395.0,-0.0451
3394.0,-0.0453
3393.0,-0.0456
3392.0,-0.0459
3391.0,-0.0462
3390.0,-0.0465
3389.0,-0.0466
3388.0,-0.0468
3387.0,-0.0469
3386.0,-0.0471
3385.0,-0.0472
3384.0,-0.0474
3383.0,-0.0477
3382.0,-0.048
3381.0,-0.0483
3380.0,-0.0485
3379.0,-0.0487
3378.0,-0.0489
3377.0,-0.0491
3376.0,-0.0493
3375.0,-0.0495
3374.0,-0.0498
3373.0,-0.0499
3372.0,-0.05
3371.0,-0.0501
3370.0,-0.0502
3369.0,-0.0504
3368.0,-0.0506
3367.0,-0.0509
3366.0,-0.051
3365.0,-0.0511
3364.0,-0.0511
3363.0,-0.051
3362.0,-0.051
3361.0,-0.051
3360.0,-0.0511
3359.0,-0.0512
3358.0,-0.0513
3357.0,-0.0515
3356.0,-0.0516
3355.0,-0.0517
3354.0,-0.0518
3353.0,-0.0518
3352.0,-0.0518
3351.0,-0.0518
3350.0,-0.0519
3349.0,-0.0521
3348.0,-0.0521
3347.0,-0.0521
3346.0,-0.052
3345.0,-0.052
3344.0,-0.052
3343.0,-0.052
3342.0,-0.052
3341.0,-0.0521
3340.0,-0.0521
3339.0,-0.0522
3338.0,-0.0522
3337.0,-0.0522
3336.0,-0.0521
3335.0,-0.0519
3334.0,-0.0517
3333.0,-0.0515
3332.0,-0.0513
3331.0,-0.0512
3330.0,-0.0511
3329.0,-0.0511
3328.0,-0.051
3327.0,-0.051
3326.0,-0.051
3325.0,-0.0511
3324.0,-0.051
3323.0,-0.0509
3322.0,-0.0507
3321.0,-0.0505
3320.0,-0.0504
3319.0,-0.0504
3318.0,-0.0503
3317.0,-0.0502
3316.0,-0.05
3315.0,-0.05
3314.0,-0.0499
3313.0,-0.0498
3312.0,-0.0497
3311.0,-0.0495
3310.0,-0.0493
3309.0,-0.0491
3308.0,-0.049
3307.0,-0.0489
3306.0,-0.0489
3305.0,-0.0488
3304.0,-0.0487
3303.0,-0.0485
3302.0,-0.0483
3301.0,-0.0482
3300.0,-0.048
3299.0,-0.048
3298.0,-0.048
3297.0,-0.048
3296.0,-0.0479
3295.0,-0.0476
3294.0,-0.0473
3293.0,-0.047
3292.0,-0.0468
3291.0,-0.0466
3290.0,-0.0466
3289.0,-0.0465
3288.0,-0.0465
3287.0,-0.0464
3286.0,-0.0463
3285.0,-0.0462
3284.0,-0.046
3283.0,-0.0459
3282.0,-0.0458
3281.0,-0.0457
3280.0,-0.0456
3279.0,-0.0455
3278.0,-0.0454
3277.0,-0.0452
3276.0,-0.0449
3275.0,-0.0447
3274.0,-0.0445
3273.0,-0.0444
3272.0,-0.0443
3271.0,-0.0443
3270.0,-0.0442
3269.0,-0.044
3268.0,-0.0438
3267.0,-0.0437
3266.0,-0.0438
3265.0,-0.0439
3264.0,-0.044
3263.0,-0.0439
3262.0,-0.0437
3261.0,-0.0435
3260.0,-0.0433
3259.0,-0.0432
3258.0,-0.0431
3257.0,-0.043
3256.0,-0.0428
3255.0,-0.0426
3254.0,-0.0425
3253.0,-0.0425
3252.0,-0.0424
3251.0,-0.0423
3250.0,-0.0422
3249.0,-0.0421
3248.0,-0.0418
3247.0,-0.0416
3246.0,-0.0414
3245.0,-0.0413
3244.0,-0.0413
3243.0,-0.0413
3242.0,-0.0413
3241.0,-0.0413
3240.0,-0.0412
3239.0,-0.041
3238.0,-0.0409
3237.0,-0.0407
3236.0,-0.0406
3235.0,-0.0405
3234.0,-0.0404
3233.0,-0.0403
3232.0,-0.0403
3231.0,-0.0401
3230.0,-0.0399
3229.0,-0.0396
3228.0,-0.0393
3227.0,-0.0391
3226.0,-0.039
3225.0,-0.039
3224.0,-0.039
3223.0,-0.0391
3222.0,-0.0391
3221.0,-0.0389
3220.0,-0.0387
3219.0,-0.0384
3218.0,-0.0382
3217.0,-0.038
3216.0,-0.0377
3215.0,-0.0375
3214.0,-0.0373
3213.0,-0.0371
3212.0,-0.037
3211.0,-0.0369
3210.0,-0.0368
3209.0,-0.0367
3208.0,-0.0366
3207.0,-0.0365
3206.0,-0.0364
3205.0,-0.0361
3204.0,-0.0358
3203.0,-0.0354
3202.0,-0.035
3201.0,-0.0347
3200.0,-0.0344
3199.0,-0.0341
3198.0,-0.0339
3197.0,-0.0337
3196.0,-0.0336
3195.0,-0.0336
3194.0,-0.0335
3193.0,-0.0334
3192.0,-0.0332
3191.0,-0.033
3190.0,-0.0327
3189.0,-0.0324
3188.0,-0.0321
3187.0,-0.0318
3186.0,-0.0315
3185.0,-0.0313
3184.0,-0.0312
3183.0,-0.031
3182.0,-0.0308
3181.0,-0.0306
3180.0,-0.0304
3179.0,-0.0301
3178.0,-0.03
3177.0,-0.0298
3176.0,-0.0297
3175.0,-0.0296
3174.0,-0.0294
3173.0,-0.0291
3172.0,-0.0288
3171.0,-0.0286
3170.0,-0.0283
3169.0,-0.0282
3168.0,-0.0281
3167.0,-0.0279
3166.0,-0.0276
3165.0,-0.0273
3164.0,-0.027
3163.0,-0.0267
3162.0,-0.0266
3161.0,-0.0264
3160.0,-0.0262
3159.0,-0.0261
3158.0,-0.0259
3157.0,-0.0256
3156.0,-0.0253
3155.0,-0.025
3154.0,-0.0247
3153.0,-0.0245
3152.0,-0.0244
3151.0,-0.0242
3150.0,-0.0241
3149.0,-0.024
3148.0,-0.0239
3147.0,-0.0237
3146.0,-0.0235
3145.0,-0.0233
3144.0,-0.023
3143.0,-0.0228
3142.0,-0.0227
3141.0,-0.0225
3140.0,-0.0222
3139.0,-0.0218
3138.0,-0.0215
3137.0,-0.0213
3136.0,-0.0212
3135.0,-0.0212
3134.0,-0.0212
3133.0,-0.0211
3132.0,-0.021
3131.0,-0.0208
3130.0,-0.0206
3129.0,-0.0204
3128.0,-0.0202
3127.0,-0.02
3126.0,-0.0198
3125.0,-0.0197
3124.0,-0.0195
3123.0,-0.0194
3122.0,-0.0193
3121.0,-0.0192
3120.0,-0.0191
3119.0,-0.019
3118.0,-0.0187
3117.0,-0.0185
3116.0,-0.0183
3115.0,-0.0181
3114.0,-0.018
3113.0,-0.0179
3112.0,-0.0178
3111.0,-0.0177
3110.0,-0.0176
3109.0,-0.0175
3108.0,-0.0174
3107.0,-0.0172
3106.0,-0.0169
3105.0,-0.0167
3104.0,-0.0165
3103.0,-0.0164
3102.0,-0.0164
3101.0,-0.0164
3100.0,-0.0163
3099.0,-0.0162
3098.0,-0.016
3097.0,-0.0158
3096.0,-0.0156
3095.0,-0.0155
3094.0,-0.0153
3093.0,-0.0152
3092.0,-0.0151
3091.0,-0.0149
3090.0,-0.0148
3089.0,-0.0147
3088.0,-0.0145
3087.0,-0.0144
3086.0,-0.0142
3085.0,-0.0141
3084.0,-0.014
3083.0,-0.0139
3082.0,-0.0137
3081.0,-0.0136
3080.0,-0.0135
3079.0,-0.0134
3078.0,-0.0132
3077.0,-0.0131
3076.0,-0.013
3075.0,-0.0128
3074.0,-0.0127
3073.0,-0.0127
3072.0,-0.0126
3071.0,-0.0126
3070.0,-0.0124
3069.0,-0.0122
3068.0,-0.012
3067.0,-0.0119
3066.0,-0.0119
3065.0,-0.0118
3064.0,-0.0117
3063.0,-0.0116
3062.0,-0.0114
3061.0,-0.0113
3060.0,-0.0111
3059.0,-0.011
3058.0,-0.0109
3057.0,-0.0107
3056.0,-0.0106
3055.0,-0.0106
3054.0,-0.0105
3053.0,-0.0104
3052.0,-0.0102
3051.0,-0.0101
3050.0,-0.01
3049.0,-0.0099
3048.0,-0.0099
3047.0,-0.0099
3046.0,-0.0098
3045.0,-0.0098
3044.0,-0.0097
3043.0,-0.0096
3042.0,-0.0095
3041.0,-0.0094
3040.0,-0.0093
3039.0,-0.0091
3038.0,-0.0091
3037.0,-0.009
3036.0,-0.009
3035.0,-0.0089
3034.0,-0.0088
3033.0,-0.0087
3032.0,-0.0086
3031.0,-0.0085
3030.0,-0.0085
3029.0,-0.0084
3028.0,-0.0083
3027.0,-0.0082
3026.0,-0.0082
3025.0,-0.0081
3024.0,-0.0081
3023.0,-0.008
3022.0,-0.008
3021.0,-0.008
3020.0,-0.008
3019.0,-0.0079
3018.0,-0.0077
3017.0,-0.0075
3016.0,-0.0075
3015.0,-0.0074
3014.0,-0.0074
3013.0,-0.0074
3012.0,-0.0072
3011.0,-0.0071
3010.0,-0.007
3009.0,-0.0069
3008.0,-0.0068
3007.0,-0.0067
3006.0,-0.0066
3005.0,-0.0065
3004.0,-0.0065
3003.0,-0.0064
3002.0,-0.0064
3001.0,-0.0064
3000.0,-0.0064
2999.0,-0.0063
2998.0,-0.0063
2997.0,-0.0063
2996.0,-0.0062
2995.0,-0.0061
2994.0,-0.006
2993.0,-0.006
2992.0,-0.0059
2991.0,-0.0059
2990.0,-0.0058
2989.0,-0.0058
2988.0,-0.0058
2987.0,-0.0058
2986.0,-0.0058
2985.0,-0.0057
2984.0,-0.0056
2983.0,-0.0055
2982.0,-0.0055
2981.0,-0.0054
2980.0,-0.0053
2979.0,-0.0052
2978.0,-0.0051
2977.0,-0.0051
2976.0,-0.005
2975.0,-0.005
2974.0,-0.005
2973.0,-0.005
2972.0,-0.0049
2971.0,-0.0048
2970.0,-0.0048
2969.0,-0.0049
2968.0,-0.005
2967.0,-0.005
2966.0,-0.0049
2965.0,-0.0048
2964.0,-0.0046
2963.0,-0.0045
2962.0,-0.0043
2961.0,-0.0043
2960.0,-0.0043
2959.0,-0.0043
2958.0,-0.0042
2957.0,-0.0042
2956.0,-0.0042
2955.0,-0.0042
2954.0,-0.0042
2953.0,-0.0041
2952.0,-0.004
2951.0,-0.004
2950.0,-0.0039
2949.0,-0.0038
2948.0,-0.0037
2947.0,-0.0037
2946.0,-0.0037
2945.0,-0.0037
2944.0,-0.0037
2943.0,-0.0037
2942.0,-0.0037
2941.0,-0.0036
2940.0,-0.0036
2939.0,-0.0035
2938.0,-0.0035
2937.0,-0.0034
2936.0,-0.0033
2935.0,-0.0033
2934.0,-0.0033
2933.0,-0.0034
2932.0,-0.0035
2931.0,-0.0035
2930.0,-0.0035
2929.0,-0.0034
2928.0,-0.0033
2927.0,-0.0032
2926.0,-0.0031
2925.0,-0.003
2924.0,-0.0029
2923.0,-0.0029
2922.0,-0.0029
2921.0,-0.0029
2920.0,-0.0029
2919.0,-0.003
2918.0,-0.0029
2917.0,-0.0029
2916.0,-0.0028
2915.0,-0.0027
2914.0,-0.0027
2913.0,-0.0027
2912.0,-0.0026
2911.0,-0.0026
2910.0,-0.0025
2909.0,-0.0024
2908.0,-0.0024
2907.0,-0.0024
2906.0,-0.0025
2905.0,-0.0024
2904.0,-0.0024
2903.0,-0.0024
2902.0,-0.0024
2901.0,-0.0024
2900.0,-0.0023
2899.0,-0.0023
2898.0,-0.0022
2897.0,-0.0021
2896.0,-0.002
2895.0,-0.002
2894.0,-0.002
2893.0,-0.002
2892.0,-0.002
2891.0,-0.0021
2890.0,-0.0021
2889.0,-0.0021
2888.0,-0.0022
2887.0,-0.0022
2886.0,-0.0022
2885.0,-0.0021
2884.0,-0.002
2883.0,-0.0019
2882.0,-0.0019
2881.0,-0.0019
2880.0,-0.0019
2879.0,-0.0019
2878.0,-0.0019
2877.0,-0.0019
2876.0,-0.0019
2875.0,-0.002
2874.0,-0.0019
2873.0,-0.0019
2872.0,-0.0018
2871.0,-0.0017
2870.0,-0.0017
2869.0,-0.0017
2868.0,-0.0016
2867.0,-0.0016
2866.0,-0.0015
2865.0,-0.0015
2864.0,-0.0016
2863.0,-0.0015
2862.0,-0.0015
2861.0,-0.0015
2860.0,-0.0014
2859.0,-0.0013
2858.0,-0.0012
2857.0,-0.0012
2856.0,-0.0012
2855.0,-0.0013
2854.0,-0.0013
2853.0,-0.0014
2852.0,-0.0014
2851.0,-0.0014
2850.0,-0.0013
2849.0,-0.0012
2848.0,-0.0012
2847.0,-0.0012
2846.0,-0.0012
2845.0,-0.0012
2844.0,-0.0012
2843.0,-0.0011
2842.0,-0.0011
2841.0,-0.0011
2840.0,-0.001
2839.0,-0.0011
2838.0,-0.0011
2837.0,-0.0011
2836.0,-0.0011
2835.0,-0.0011
2834.0,-0.0011
2833.0,-0.0011
2832.0,-0.0012
2831.0,-0.0012
2830.0,-0.0011
2829.0,-0.001
2828.0,-0.0009
2827.0,-0.0008
2826.0,-0.0008
2825.0,-0.0009
2824.0,-0.0009
2823.0,-0.0009
2822.0,-0.0009
2821.0,-0.0009
2820.0,-0.0008
2819.0,-0.0008
2818.0,-0.0008
2817.0,-0.0008
2816.0,-0.0008
2815.0,-0.0008
2814.0,-0.0008
2813.0,-0.0008
2812.0,-0.0008
2811.0,-0.0008
2810.0,-0.0008
2809.0,-0.0008
2808.0,-0.0007
2807.0,-0.0007
2806.0,-0.0007
2805.0,-0.0007
2804.0,-0.0006
2803.0,-0.0006
2802.0,-0.0005
2801.0,-0.0005
2800.0,-0.0005
2799.0,-0.0005
2798.0,-0.0005
2797.0,-0.0006
2796.0,-0.0006
2795.0,-0.0007
2794.0,-0.0007
2793.0,-0.0006
2792.0,-0.0005
2791.0,-0.0005
2790.0,-0.0004
2789.0,-0.0004
2788.0,-0.0004
2787.0,-0.0004
2786.0,-0.0004
2785.0,-0.0004
2784.0,-0.0004
2783.0,-0.0003
2782.0,-0.0003
2781.0,-0.0003
2780.0,-0.0002
2779.0,-0.0002
2778.0,-0.0002
2777.0,-0.0002
2776.0,-0.0002
2775.0,-0.0003
2774.0,-0.0003
2773.0,-0.0004
2772.0,-0.0004
2771.0,-0.0004
2770.0,-0.0004
2769.0,-0.0004
2768.0,-0.0003
2767.0,-0.0003
2766.0,-0.0003
2765.0,-0.0002
2764.0,-0.0002
2763.0,-0.0002
2762.0,-0.0002
2761.0,-0.0001
2760.0,-0.0001
2759.0,-0.0001
2758.0,-0.0002
2757.0,-0.0002
2756.0,-0.0002
2755.0,-0.0002
2754.0,-0.0002
2753.0,-0.0002
2752.0,-0.0002
2751.0,-0.0002
2750.0,-0.0002
2749.0,-0.0002
2748.0,-0.0002
2747.0,-0.0002
2746.0,-0.0002
2745.0,-0.0002
2744.0,-0.0002
2743.0,-0.0002
2742.0,-0.0002
2741.0,-0.0001
2740.0,-0.0001
2739.0,-0.0
2738.0,-0.0
2737.0,0.0
2736.0,-0.0
2735.0,-0.0001
2734.0,-0.0001
2733.0,-0.0001
2732.0,-0.0001
2731.0,-0.0001
2730.0,-0.0001
2729.0,-0.0001
2728.0,-0.0
2727.0,-0.0001
2726.0,-0.0001
2725.0,-0.0001
2724.0,-0.0001
2723.0,-0.0
2722.0,0.0001
2721.0,0.0001
2720.0,0.0002
2719.0,0.0002
2718.0,0.0002
2717.0,0.0002
2716.0,0.0002
2715.0,0.0002
2714.0,0.0002
2713.0,0.0003
2712.0,0.0004
2711.0,0.0004
2710.0,0.0003
2709.0,0.0002
2708.0,0.0001
2707.0,0.0001
2706.0,0.0001
2705.0,0.0001
2704.0,0.0002
2703.0,0.0002
2702.0,0.0002
2701.0,0.0002
2700.0,0.0002
2699.0,0.0002
2698.0,0.0002
2697.0,0.0002
2696.0,0.0002
2695.0,0.0002
2694.0,0.0002
2693.0,0.0003
2692.0,0.0003
2691.0,0.0003
2690.0,0.0003
2689.0,0.0002
2688.0,0.0002
2687.0,0.0002
2686.0,0.0002
2685.0,0.0002
2684.0,0.0002
2683.0,0.0002
2682.0,0.0002
2681.0,0.0002
2680.0,0.0002
2679.0,0.0002
2678.0,0.0002
2677.0,0.0002
2676.0,0.0002
2675.0,0.0002
2674.0,0.0002
2673.0,0.0003
2672.0,0.0003
2671.0,0.0004
2670.0,0.0004
2669.0,0.0004
2668.0,0.0005
2667.0,0.0004
2666.0,0.0004
2665.0,0.0003
2664.0,0.0003
2663.0,0.0002
2662.0,0.0003
2661.0,0.0003
2660.0,0.0004
2659.0,0.0004
2658.0,0.0004
2657.0,0.0004
2656.0,0.0004
2655.0,0.0005
2654.0,0.0005
2653.0,0.0004
2652.0,0.0004
2651.0,0.0004
2650.0,0.0004
2649.0,0.0004
2648.0,0.0004
2647.0,0.0005
2646.0,0.0005
2645.0,0.0005
2644.0,0.0004
2643.0,0.0004
2642.0,0.0004
2641.0,0.0004
2640.0,0.0004
2639.0,0.0004
2638.0,0.0004
2637.0,0.0004
2636.0,0.0005
2635.0,0.0005
2634.0,0.0005
2633.0,0.0005
2632.0,0.0005
2631.0,0.0004
2630.0,0.0004
2629.0,0.0004
2628.0,0.0004
2627.0,0.0004
2626.0,0.0004
2625.0,0.0004
