nm,Intensity
791.377,5642.88
791.652,5631.48
791.927,5615.3
792.202,5583.28
792.477,5546.12
792.752,5503.56
793.027,5448.42
793.301,5436.32
793.576,5402.72
793.851,5375.56
794.126,5350.6
794.401,5335.64
794.676,5362.06
794.951,5373.9
795.225,5400.94
795.5,5419.28
795.775,5414.72
796.05,5423.96
796.325,5421.32
796.599,5411.92
796.874,5378.66
797.149,5330.92
797.424,5334.54
797.698,5359.98
797.973,5337.44
798.248,5306.92
798.523,5330.86
798.797,5306.2
799.072,5280.02
799.347,5289.44
799.622,5310.18
799.896,5279.26
800.171,5270.66
800.446,5303.32
800.72,5289.16
800.995,5290.64
801.27,5289.7
801.544,5240.96
801.819,5237.8
802.094,5221.2
802.368,5227.22
802.643,5225.36
802.918,5210.8
803.192,5193.82
803.467,5191.82
803.742,5177.22
804.016,5160.8
804.291,5145.64
804.565,5161.36
804.84,5154.5
805.114,5153.62
805.389,5189.54
805.664,5170.76
805.938,5171.9
806.213,5162.88
806.487,5150.26
806.762,5148.68
807.036,5113.16
807.311,5126.78
807.585,5147.64
807.86,5136.66
808.134,5100.56
808.409,5093.88
808.683,5067.82
808.958,5087.36
809.232,5110.76
809.507,5127.3
809.781,5128.86
810.056,5198.14
810.33,5239.56
810.605,5240.04
810.879,5228.76
811.153,5169.78
811.428,5095.56
811.702,5095.26
811.977,5083.12
812.251,5081.08
812.525,5055.0
812.8,5043.6
813.074,5037.3
813.349,5036.64
813.623,5043.66
813.897,5059.12
814.172,5038.24
814.446,5042.08
814.72,5004.6
814.995,4980.82
815.269,4965.6
815.543,4952.74
815.818,4960.26
816.092,4943.34
816.366,4951.16
816.64,4901.28
816.915,4893.84
817.189,4921.8
817.463,4939.96
817.737,4907.94
818.012,4918.76
818.286,4931.26
818.56,4920.16
818.834,4911.84
819.109,4917.5
819.383,4924.66
819.657,4908.8
819.931,4893.34
820.205,4874.38
820.48,4885.8
820.754,4903.66
821.028,4879.02
821.302,4879.6
821.576,4852.54
821.85,4848.62
822.125,4845.3
822.399,4843.18
822.673,4810.92
822.947,4773.96
823.221,4804.7
823.495,4803.24
823.769,4821.62
824.043,4819.04
824.317,4810.58
824.591,4816.38
824.865,4814.94
825.14,4825.68
825.414,4820.1
825.688,4793.94
825.962,4791.38
826.236,4779.04
826.51,4770.98
826.784,4771.28
827.058,4773.56
827.332,4779.08
827.606,4749.48
827.88,4739.52
828.154,4730.98
828.428,4738.14
828.702,4742.58
828.976,4753.46
829.249,4736.9
829.523,4736.78
829.797,4746.06
830.071,4732.28
830.345,4728.76
830.619,4724.04
830.893,4732.88
831.167,4736.52
831.441,4703.86
831.715,4687.02
831.988,4682.46
832.262,4683.68
832.536,4703.04
832.81,4716.22
833.084,4718.16
833.358,4700.28
833.632,4691.38
833.905,4709.9
834.179,4709.42
834.453,4692.38
834.727,4664.78
835.001,4673.66
835.274,4691.24
835.548,4683.8
835.822,4689.9
836.096,4682.64
836.369,4704.2
836.643,4690.36
836.917,4675.3
837.191,4704.14
837.464,4735.12
837.738,4805.72
838.012,4887.14
838.285,4953.58
838.559,4917.42
838.833,4851.06
839.106,4785.62
839.38,4749.14
839.654,4723.04
839.927,4756.82
840.201,4816.0
840.475,4839.96
840.748,4808.92
841.022,4784.52
841.295,4740.9
841.569,4699.34
841.843,4674.42
842.116,4647.96
842.39,4664.9
842.663,4663.82
842.937,4649.38
843.211,4636.88
843.484,4658.86
843.758,4661.1
844.031,4633.7
844.305,4635.88
844.578,4627.82
844.852,4620.62
845.125,4655.56
845.399,4651.32
845.672,4630.26
845.946,4632.06
846.219,4620.56
846.493,4594.4
846.766,4597.34
847.039,4625.12
847.313,4632.14
847.586,4655.98
847.86,4651.86
848.133,4638.22
848.407,4605.34
848.68,4616.66
848.953,4630.44
849.227,4639.14
849.5,4663.82
849.773,4689.74
850.047,4680.8
850.32,4674.12
850.593,4653.24
850.867,4629.14
851.14,4610.1
851.413,4605.7
851.687,4625.28
851.96,4636.32
852.233,4634.12
852.507,4607.6
852.78,4587.7
853.053,4577.6
853.326,4582.98
853.6,4593.92
853.873,4581.26
854.146,4578.14
854.419,4581.54
854.693,4609.8
854.966,4617.96
855.239,4602.56
855.512,4601.5
855.785,4563.1
856.059,4554.32
856.332,4562.24
856.605,4558.6
856.878,4563.38
857.151,4570.6
857.424,4567.54
857.698,4541.66
857.971,4538.98
858.244,4547.32
858.517,4545.62
858.79,4555.34
859.063,4546.82
859.336,4535.92
859.609,4532.46
859.882,4537.38
860.155,4532.2
860.428,4550.18
860.701,4550.3
860.974,4549.86
861.247,4528.9
861.52,4530.22
861.793,4536.54
862.066,4552.12
862.339,4573.62
862.612,4615.78
862.885,4626.38
863.158,4625.92
863.431,4638.6
863.704,4647.64
863.977,4651.98
864.25,4632.38
864.523,4601.58
864.796,4575.0
865.069,4542.1
865.342,4528.06
865.615,4520.26
865.888,4527.84
866.16,4511.48
866.433,4495.68
866.706,4504.88
866.979,4502.58
867.252,4518.62
867.525,4532.9
867.798,4542.12
868.07,4538.52
868.343,4525.2
868.616,4506.54
868.889,4498.44
869.162,4506.14
869.434,4505.74
869.707,4507.9
869.98,4507.76
870.253,4494.64
870.525,4501.42
870.798,4488.7
871.071,4503.66
871.344,4501.68
871.616,4485.38
871.889,4482.24
872.162,4478.9
872.434,4461.08
872.707,4472.8
872.98,4482.62
873.252,4506.44
873.525,4491.9
873.798,4505.64
874.07,4518.96
874.343,4510.32
874.615,4502.32
874.888,4502.28
875.161,4504.96
875.433,4514.3
875.706,4532.26
875.978,4546.98
876.251,4549.84
876.524,4547.82
876.796,4567.6
877.069,4554.1
877.341,4516.42
877.614,4509.16
877.886,4500.24
878.159,4487.84
878.431,4480.98
878.704,4480.5
878.976,4482.16
879.249,4472.34
879.521,4453.5
879.794,4438.64
880.066,4425.26
880.338,4433.48
880.611,4421.52
880.883,4411.76
881.156,4412.0
881.428,4398.9
881.7,4400.62
881.973,4403.88
882.245,4389.34
882.518,4377.46
882.79,4379.7
883.062,4389.86
883.335,4387.96
883.607,4398.08
883.879,4415.5
884.152,4431.78
884.424,4435.68
884.696,4444.64
884.968,4434.1
885.241,4451.1
885.513,4477.86
885.785,4493.48
886.058,4506.56
886.33,4526.86
886.602,4507.98
886.874,4494.6
887.146,4463.22
887.419,4433.7
887.691,4414.3
887.963,4401.64
888.235,4377.08
888.507,4351.0
888.78,4340.98
889.052,4342.78
889.324,4343.82
889.596,4340.12
889.868,4326.82
890.14,4319.58
890.412,4317.8
890.684,4309.96
890.957,4318.42
891.229,4312.52
891.501,4304.7
891.773,4318.98
892.045,4322.54
892.317,4321.18
892.589,4308.74
892.861,4306.86
893.133,4301.54
893.405,4291.64
893.677,4283.44
893.949,4272.46
894.221,4263.98
894.493,4276.58
894.765,4265.12
895.037,4254.08
895.309,4270.56
895.581,4259.42
895.853,4240.96
896.125,4236.0
896.397,4237.28
896.668,4233.58
896.94,4242.32
897.212,4233.08
897.484,4223.82
897.756,4231.0
898.028,4228.46
898.3,4220.14
898.571,4214.78
898.843,4214.46
899.115,4211.38
899.387,4210.16
899.659,4209.34
899.931,4201.84
900.202,4191.92
900.474,4183.48
900.746,4176.4
901.018,4181.58
901.289,4190.16
901.561,4190.32
901.833,4196.76
902.105,4181.48
902.376,4173.46
902.648,4178.64
902.92,4172.56
903.191,4165.22
903.463,4176.82
903.735,4181.74
904.006,4183.82
904.278,4174.1
904.55,4173.56
904.821,4163.3
905.093,4152.86
905.365,4151.94
905.636,4153.8
905.908,4158.76
906.179,4151.84
906.451,4146.8
906.722,4144.62
906.994,4138.3
907.266,4131.18
907.537,4125.06
907.809,4114.58
908.08,4119.68
908.352,4126.7
908.623,4125.4
908.895,4122.34
909.166,4117.3
909.438,4109.26
909.709,4109.74
909.981,4098.5
910.252,4101.44
910.523,4105.92
910.795,4105.02
911.066,4102.52
911.338,4106.12
911.609,4099.1
911.881,4098.76
912.152,4101.42
912.423,4089.08
912.695,4082.74
912.966,4079.7
913.237,4082.16
913.509,4081.66
913.78,4086.82
914.051,4083.78
914.323,4080.24
914.594,4070.6
914.865,4071.76
915.136,4072.38
915.408,4066.18
915.679,4067.78
915.95,4067.38
916.221,4062.66
916.493,4057.1
916.764,4051.68
917.035,4048.74
917.306,4039.0
917.578,4043.64
917.849,4047.6
918.12,4053.08
918.391,4054.42
918.662,4053.52
918.933,4047.54
919.204,4047.5
919.476,4049.06
919.747,4040.4
920.018,4046.94
920.289,4048.42
920.56,4045.02
920.831,4032.78
921.102,4032.06
921.373,4031.96
921.644,4028.56
921.915,4025.34
922.186,4017.34
922.457,4006.42
922.728,4010.98
922.999,4017.66
923.27,4013.68
923.541,4018.14
923.812,4012.14
924.083,4014.2
924.354,4017.02
924.625,4005.74
924.896,4005.56
925.167,4000.54
925.438,3999.02
925.709,3995.3
925.98,3997.62
926.251,4001.18
926.522,4003.04
926.792,3992.34
927.063,3986.34
927.334,3987.92
927.605,3982.56
927.876,3979.06
928.147,3977.72
928.417,3974.52
928.688,3968.7
928.959,3965.38
929.23,3956.64
929.501,3955.86
929.771,3954.9
930.042,3959.78
930.313,3951.0
930.584,3952.12
930.854,3952.94
931.125,3953.98
931.396,3946.98
931.666,3942.54
931.937,3945.44
932.208,3936.46
932.478,3935.62
932.749,3925.4
933.02,3925.9
933.29,3927.54
933.561,3931.14
933.832,3929.9
934.102,3928.18
934.373,3923.14
934.643,3923.8
934.914,3921.92
935.184,3920.14
935.455,3923.94
935.726,3920.08
935.996,3922.1
936.267,3914.58
936.537,3911.98
936.808,3907.62
937.078,3907.3
937.349,3909.06
937.619,3905.04
937.89,3904.44
938.16,3902.96
938.43,3905.26
938.701,3903.18
938.971,3900.82
939.242,3895.32
939.512,3899.88
939.782,3902.8
940.053,3899.62
940.323,3896.26
940.594,3892.94
940.864,3893.2
941.134,3895.24
941.405,3897.6
941.675,3896.4
941.945,3895.52
942.216,3885.44
942.486,3883.66
942.756,3885.12
943.026,3881.34
943.297,3885.28
943.567,3886.54
943.837,3881.58
944.107,3875.12
944.378,3877.42
944.648,3874.0
944.918,3873.12
945.188,3869.36
945.458,3868.18
945.729,3868.98
945.999,3868.36
946.269,3871.46
946.539,3873.56
946.809,3870.62
947.079,3871.4
947.349,3869.98
947.62,3866.24
947.89,3865.2
948.16,3861.2
948.43,3863.78
948.7,3865.64
948.97,3863.08
949.24,3858.68
949.51,3853.22
949.78,3850.4
950.05,3855.5
950.32,3859.2
950.59,3857.08
950.86,3851.1
951.13,3847.88
951.4,3847.94
951.67,3850.8
951.94,3852.16
952.21,3848.46
952.48,3845.1
952.75,3844.72
953.02,3842.28
953.289,3843.4
953.559,3839.94
953.829,3841.94
954.099,3844.42
954.369,3840.46
954.639,3839.58
954.909,3841.32
955.178,3841.6
955.448,3841.04
955.718,3838.62
955.988,3834.64
956.257,3832.32
956.527,3831.9
956.797,3832.62
957.067,3832.34
957.336,3831.64
957.606,3835.68
957.876,3835.2
958.146,3832.46
958.415,3828.62
958.685,3825.82
958.955,3829.54
959.224,3825.6
959.494,3828.64
959.764,3825.68
960.033,3821.04
960.303,3823.64
960.572,3824.42
960.842,3824.88
961.112,3821.1
961.381,3820.6
961.651,3819.78
961.92,3819.06
962.19,3820.58
962.459,3819.8
962.729,3821.92
962.998,3820.18
963.268,3817.78
963.537,3816.34
963.807,3816.22
964.076,3814.02
964.346,3815.58
964.615,3814.04
964.885,3809.84
965.154,3807.14
965.424,3810.54
965.693,3809.7
965.962,3808.94
966.232,3808.78
966.501,3811.18
966.771,3810.08
967.04,3811.6
967.309,3809.14
967.579,3807.36
967.848,3807.96
968.117,3808.58
968.387,3808.62
968.656,3809.8
968.925,3811.42
969.194,3809.24
969.464,3806.34
969.733,3802.96
970.002,3804.18
970.271,3805.14
970.541,3803.1
970.81,3803.32
971.079,3807.16
971.348,3801.92
971.617,3800.3
971.887,3801.24
972.156,3801.64
972.425,3800.74
972.694,3799.54
972.963,3794.74
973.232,3795.48
973.501,3793.26
973.77,3792.48
974.04,3793.56
974.309,3793.98
974.578,3791.58
974.847,3791.84
975.116,3788.38
975.385,3789.62
975.654,3792.66
975.923,3793.38
976.192,3790.6
976.461,3787.86
976.73,3786.26
976.999,3787.7
977.268,3787.02
977.537,3785.72
977.806,3785.72
978.074,3786.58
978.343,3786.26
978.612,3786.8
978.881,3784.32
979.15,3783.82
979.419,3783.78
979.688,3781.84
979.957,3784.18
980.225,3780.18
980.494,3779.38
980.763,3780.14
981.032,3783.92
981.301,3783.58
981.569,3780.58
981.838,3782.2
982.107,3782.2
982.376,3781.16
982.644,3777.94
982.913,3778.2
983.182,3777.88
983.451,3779.2
983.719,3776.92
983.988,3776.6
984.257,3777.78
984.525,3775.8
984.794,3776.32
985.063,3775.24
985.331,3777.6
985.6,3779.02
985.868,3777.98
986.137,3774.12
986.406,3774.8
986.674,3774.28
986.943,3775.64
987.211,3775.12
987.48,3773.86
987.748,3775.32
988.017,3771.52
988.285,3772.44
988.554,3769.36
988.822,3770.92
989.091,3769.92
989.359,3769.2
989.628,3768.84
989.896,3768.1
990.164,3767.4
990.433,3768.4
990.701,3767.66
990.97,3769.86
991.238,3770.98
991.506,3766.78
991.775,3767.58
992.043,3765.66
992.311,3767.0
992.58,3764.86
992.848,3764.46
993.116,3767.14
993.385,3766.68
993.653,3764.66
993.921,3766.18
994.19,3765.1
994.458,3764.38
994.726,3763.06
994.994,3763.38
995.262,3765.16
995.531,3763.62
995.799,3762.12
996.067,3762.68
996.335,3764.56
996.603,3762.42
996.872,3763.0
997.14,3763.1
997.408,3763.32
997.676,3763.5
997.944,3764.06
998.212,3762.36
998.48,3762.04
998.748,3760.62
999.016,3759.56
999.284,3761.06
999.552,3759.76
999.82,3759.72
1000.09,3759.02
1000.36,3758.46
1000.62,3756.9
1000.89,3756.3
1001.16,3754.24
1001.43,3754.4
1001.7,3753.98
1001.96,3753.66
1002.23,3753.42
1002.5,3752.66
1002.77,3751.74
1003.04,3751.54
1003.3,3750.36
1003.57,3750.76
1003.84,3749.66
1004.11,3748.74
1004.38,3750.84
1004.64,3748.4
1004.91,3748.94
1005.18,3748.98
1005.45,3747.44
1005.71,3747.02
1005.98,3746.38
1006.25,3747.84
1006.52,3747.78
1006.79,3748.24
1007.05,3749.6
1007.32,3747.08
1007.59,3747.62
1007.86,3747.2
1008.12,3747.9
1008.39,3749.98
1008.66,3752.34
1008.93,3752.4
1009.19,3753.6
1009.46,3755.18
1009.73,3759.36
1010.0,3760.84
1010.26,3761.98
1010.53,3762.98
1010.8,3763.9
1011.07,3765.18
1011.33,3766.88
1011.6,3766.44
1011.87,3768.92
1012.14,3768.24
1012.4,3770.1
1012.67,3774.5
1012.94,3774.22
1013.21,3776.22
1013.47,3778.38
1013.74,3780.44
1014.01,3783.1
1014.28,3783.74
1014.54,3785.58
1014.81,3785.92
1015.08,3787.48
1015.35,3788.28
1015.61,3787.62
1015.88,3786.1
1016.15,3783.56
1016.42,3780.86
1016.68,3778.98
1016.95,3776.28
1017.22,3775.28
1017.48,3771.66
1017.75,3770.84
1018.02,3769.22
1018.29,3767.26
1018.55,3766.38
1018.82,3764.82
1019.09,3762.4
1019.36,3761.28
1019.62,3757.86
1019.89,3757.52
1020.16,3754.42
1020.42,3754.12
1020.69,3751.62
1020.96,3751.76
1021.23,3751.76
1021.49,3751.1
1021.76,3750.74
1022.03,3751.84
1022.29,3751.54
1022.56,3751.1
1022.83,3749.02
1023.09,3747.88
1023.36,3748.96
1023.63,3746.74
1023.9,3745.82
1024.16,3744.1
1024.43,3742.48
1024.7,3738.92
1024.96,3737.48
1025.23,3735.98
1025.5,3734.3
1025.76,3734.82
1026.03,3731.22
1026.3,3730.62
1026.56,3729.68
1026.83,3729.22
1027.1,3728.04
1027.37,3728.54
1027.63,3728.96
1027.9,3728.52
1028.17,3728.16
1028.43,3727.82
1028.7,3728.6
1028.97,3726.9
1029.23,3726.66
1029.5,3726.56
1029.77,3726.68
1030.03,3725.68
1030.3,3725.44
1030.57,3725.9
1030.83,3726.1
1031.1,3725.32
1031.37,3726.68
1031.63,3726.5
1031.9,3726.12
1032.17,3724.96
1032.43,3724.86
1032.7,3724.8
1032.97,3724.62
1033.23,3725.26
1033.5,3725.56
1033.77,3723.98
1034.03,3723.48
1034.3,3723.92
1034.57,3723.44
1034.83,3723.92
1035.1,3724.44
1035.36,3724.12
1035.63,3723.3
1035.9,3724.1
1036.16,3723.06
1036.43,3724.14
1036.7,3722.96
1036.96,3723.16
1037.23,3721.78
1037.5,3722.56
1037.76,3721.88
1038.03,3721.66
1038.3,3721.26
1038.56,3722.26
1038.83,3721.4
1039.09,3722.54
1039.36,3722.04
1039.63,3721.76
1039.89,3720.7
1040.16,3722.6
1040.43,3720.48
1040.69,3721.72
1040.96,3722.0
1041.22,3720.46
1041.49,3720.94
1041.76,3721.42
1042.02,3719.6
1042.29,3721.18
1042.55,3719.94
1042.82,3720.6
1043.09,3720.44
1043.35,3720.04
1043.62,3719.98
1043.89,3720.16
1044.15,3720.48
1044.42,3720.66
1044.68,3720.0
1044.95,3719.76
1045.22,3720.7
1045.48,3718.54
1045.75,3719.06
1046.01,3719.34
1046.28,3718.7
1046.55,3719.22
1046.81,3719.84
1047.08,3718.74
1047.34,3719.28
1047.61,3719.66
1047.88,3719.3
1048.14,3718.96
1048.41,3718.88
1048.67,3719.4
1048.94,3718.46
1049.2,3720.0
1049.47,3719.28
1049.74,3718.64
1050.0,3718.3
1050.27,3717.68
1050.53,3717.58
1050.8,3718.94
1051.06,3718.22
1051.33,3717.58
1051.6,3719.04
1051.86,3719.76
1052.13,3719.22
1052.39,3719.16
1052.66,3718.46
1052.92,3718.6
1053.19,3717.28
1053.46,3718.72
1053.72,3717.46
1053.99,3718.5
1054.25,3718.7
1054.52,3716.68
1054.78,3716.74
1055.05,3718.52
1055.32,3718.44
1055.58,3718.4
1055.85,3718.5
1056.11,3718.0
1056.38,3717.64
1056.64,3717.14
1056.91,3717.52
1057.17,3717.84
1057.44,3717.18
1057.7,3717.48
1057.97,3717.7
1058.24,3717.92
1058.5,3717.72
1058.77,3716.82
1059.03,3717.26
1059.3,3716.96
1059.56,3716.74
1059.83,3717.98
1060.09,3717.48
1060.36,3717.96
1060.62,3717.48
1060.89,3717.32
1061.15,3717.9
1061.42,3717.76
1061.68,3716.5
1061.95,3716.98
1062.22,3716.22
1062.48,3716.98
1062.75,3716.84
1063.01,3717.06
1063.28,3716.54
1063.54,3716.84
1063.81,3716.6
1064.07,3717.28
1064.34,3716.78
1064.6,3715.9
1064.87,3715.68
1065.13,3717.02
1065.4,3716.28
1065.66,3716.78
1065.93,3716.46
1066.19,3716.22
1066.46,3716.02
1066.72,3716.32
1066.99,3716.0
1067.25,3715.82
1067.52,3715.22
1067.78,3716.74
1068.05,3715.6
