cm-1,A
4000.0,-0.0005
3999.0,-0.0005
3998.0,-0.0006
3997.0,-0.0006
3996.0,-0.0007
3995.0,-0.0007
3994.0,-0.0008
3993.0,-0.0009
3992.0,-0.0009
3991.0,-0.0009
3990.0,-0.0008
3989.0,-0.0007
3988.0,-0.0006
3987.0,-0.0006
3986.0,-0.0006
3985.0,-0.0007
3984.0,-0.0008
3983.0,-0.0009
3982.0,-0.0009
3981.0,-0.0009
3980.0,-0.0009
3979.0,-0.0008
3978.0,-0.0007
3977.0,-0.0006
3976.0,-0.0006
3975.0,-0.0006
3974.0,-0.0006
3973.0,-0.0007
3972.0,-0.0007
3971.0,-0.0008
3970.0,-0.0008
3969.0,-0.0007
3968.0,-0.0007
3967.0,-0.0006
3966.0,-0.0006
3965.0,-0.0007
3964.0,-0.0008
3963.0,-0.0009
3962.0,-0.001
3961.0,-0.0009
3960.0,-0.0008
3959.0,-0.0008
3958.0,-0.0007
3957.0,-0.0007
3956.0,-0.0006
3955.0,-0.0006
3954.0,-0.0006
3953.0,-0.0006
3952.0,-0.0006
3951.0,-0.0006
3950.0,-0.0006
3949.0,-0.0006
3948.0,-0.0006
3947.0,-0.0006
3946.0,-0.0005
3945.0,-0.0004
3944.0,-0.0004
3943.0,-0.0004
3942.0,-0.0005
3941.0,-0.0006
3940.0,-0.0006
3939.0,-0.0006
3938.0,-0.0007
3937.0,-0.0007
3936.0,-0.0008
3935.0,-0.0007
3934.0,-0.0006
3933.0,-0.0005
3932.0,-0.0004
3931.0,-0.0004
3930.0,-0.0005
3929.0,-0.0005
3928.0,-0.0005
3927.0,-0.0005
3926.0,-0.0004
3925.0,-0.0004
3924.0,-0.0005
3923.0,-0.0005
3922.0,-0.0005
3921.0,-0.0006
3920.0,-0.0006
3919.0,-0.0007
3918.0,-0.0008
3917.0,-0.0008
3916.0,-0.0008
3915.0,-0.0007
3914.0,-0.0006
3913.0,-0.0006
3912.0,-0.0006
3911.0,-0.0006
3910.0,-0.0007
3909.0,-0.0007
3908.0,-0.0006
3907.0,-0.0006
3906.0,-0.0007
3905.0,-0.0008
3904.0,-0.001
3903.0,-0.0011
3902.0,-0.001
3901.0,-0.0009
3900.0,-0.0008
3899.0,-0.0007
3898.0,-0.0007
3897.0,-0.0007
3896.0,-0.0007
3895.0,-0.0006
3894.0,-0.0006
3893.0,-0.0007
3892.0,-0.0007
3891.0,-0.0007
3890.0,-0.0007
3889.0,-0.0006
3888.0,-0.0005
3887.0,-0.0005
3886.0,-0.0005
3885.0,-0.0007
3884.0,-0.0007
3883.0,-0.0007
3882.0,-0.0007
3881.0,-0.0008
3880.0,-0.0008
3879.0,-0.0008
3878.0,-0.0007
3877.0,-0.0006
3876.0,-0.0006
3875.0,-0.0006
3874.0,-0.0007
3873.0,-0.0006
3872.0,-0.0006
3871.0,-0.0005
3870.0,-0.0005
3869.0,-0.0006
3868.0,-0.0006
3867.0,-0.0006
3866.0,-0.0006
3865.0,-0.0006
3864.0,-0.0005
3863.0,-0.0004
3862.0,-0.0003
3861.0,-0.0003
3860.0,-0.0003
3859.0,-0.0004
3858.0,-0.0005
3857.0,-0.0006
3856.0,-0.0007
3855.0,-0.0007
3854.0,-0.0007
3853.0,-0.0008
3852.0,-0.0008
3851.0,-0.0008
3850.0,-0.0007
3849.0,-0.0006
3848.0,-0.0005
3847.0,-0.0005
3846.0,-0.0004
3845.0,-0.0003
3844.0,-0.0003
3843.0,-0.0002
3842.0,-0.0002
3841.0,-0.0002
3840.0,-0.0003
3839.0,-0.0003
3838.0,-0.0004
3837.0,-0.0004
3836.0,-0.0004
3835.0,-0.0005
3834.0,-0.0006
3833.0,-0.0006
3832.0,-0.0007
3831.0,-0.0007
3830.0,-0.0007
3829.0,-0.0006
3828.0,-0.0005
3827.0,-0.0006
3826.0,-0.0006
3825.0,-0.0007
3824.0,-0.0006
3823.0,-0.0005
3822.0,-0.0005
3821.0,-0.0006
3820.0,-0.0006
3819.0,-0.0006
3818.0,-0.0006
3817.0,-0.0006
3816.0,-0.0007
3815.0,-0.0008
3814.0,-0.0008
3813.0,-0.0007
3812.0,-0.0007
3811.0,-0.0007
3810.0,-0.0007
3809.0,-0.0008
3808.0,-0.0008
3807.0,-0.0009
3806.0,-0.0009
3805.0,-0.0008
3804.0,-0.0007
3803.0,-0.0006
3802.0,-0.0006
3801.0,-0.0007
3800.0,-0.0006
3799.0,-0.0006
3798.0,-0.0005
3797.0,-0.0005
3796.0,-0.0005
3795.0,-0.0005
3794.0,-0.0005
3793.0,-0.0005
3792.0,-0.0005
3791.0,-0.0005
3790.0,-0.0005
3789.0,-0.0005
3788.0,-0.0005
3787.0,-0.0005
3786.0,-0.0005
3785.0,-0.0004
3784.0,-0.0003
3783.0,-0.0003
3782.0,-0.0003
3781.0,-0.0004
3780.0,-0.0005
3779.0,-0.0006
3778.0,-0.0006
3777.0,-0.0006
3776.0,-0.0006
3775.0,-0.0007
3774.0,-0.0008
3773.0,-0.0008
3772.0,-0.0007
3771.0,-0.0007
3770.0,-0.0007
3769.0,-0.0007
3768.0,-0.0008
3767.0,-0.0007
3766.0,-0.0007
3765.0,-0.0007
3764.0,-0.0007
3763.0,-0.0006
3762.0,-0.0005
3761.0,-0.0004
3760.0,-0.0003
3759.0,-0.0003
3758.0,-0.0004
3757.0,-0.0005
3756.0,-0.0006
3755.0,-0.0006
3754.0,-0.0007
3753.0,-0.0007
3752.0,-0.0009
3751.0,-0.0011
3750.0,-0.0011
3749.0,-0.0011
3748.0,-0.0011
3747.0,-0.001
3746.0,-0.001
3745.0,-0.001
3744.0,-0.0012
3743.0,-0.0013
3742.0,-0.0013
3741.0,-0.0013
3740.0,-0.0015
3739.0,-0.0016
3738.0,-0.0017
3737.0,-0.0018
3736.0,-0.0018
3735.0,-0.0017
3734.0,-0.0017
3733.0,-0.0017
3732.0,-0.0017
3731.0,-0.0017
3730.0,-0.0017
3729.0,-0.0017
3728.0,-0.0017
3727.0,-0.0017
3726.0,-0.0018
3725.0,-0.0018
3724.0,-0.0017
3723.0,-0.0017
3722.0,-0.0016
3721.0,-0.0015
3720.0,-0.0014
3719.0,-0.0013
3718.0,-0.0012
3717.0,-0.0011
3716.0,-0.001
3715.0,-0.0008
3714.0,-0.0008
3713.0,-0.0009
3712.0,-0.0011
3711.0,-0.0012
3710.0,-0.0013
3709.0,-0.0014
3708.0,-0.0014
3707.0,-0.0015
3706.0,-0.0015
3705.0,-0.0014
3704.0,-0.0011
3703.0,-0.0008
3702.0,-0.0007
3701.0,-0.0008
3700.0,-0.001
3699.0,-0.0012
3698.0,-0.0012
3697.0,-0.0011
3696.0,-0.0011
3695.0,-0.0012
3694.0,-0.0013
3693.0,-0.0014
3692.0,-0.0013
3691.0,-0.001
3690.0,-0.0009
3689.0,-0.0009
3688.0,-0.0011
3687.0,-0.0013
3686.0,-0.0014
3685.0,-0.0013
3684.0,-0.0013
3683.0,-0.0012
3682.0,-0.0011
3681.0,-0.001
3680.0,-0.001
3679.0,-0.0011
3678.0,-0.0011
3677.0,-0.0009
3676.0,-0.0007
3675.0,-0.0006
3674.0,-0.0007
3673.0,-0.0007
3672.0,-0.0007
3671.0,-0.0007
3670.0,-0.0007
3669.0,-0.0008
3668.0,-0.0008
3667.0,-0.0008
3666.0,-0.0007
3665.0,-0.0007
3664.0,-0.0006
3663.0,-0.0006
3662.0,-0.0007
3661.0,-0.0008
3660.0,-0.0009
3659.0,-0.0009
3658.0,-0.0008
3657.0,-0.0008
3656.0,-0.0008
3655.0,-0.0008
3654.0,-0.0008
3653.0,-0.0007
3652.0,-0.0006
3651.0,-0.0006
3650.0,-0.0006
3649.0,-0.0005
3648.0,-0.0005
3647.0,-0.0006
3646.0,-0.0007
3645.0,-0.0008
3644.0,-0.0008
3643.0,-0.0008
3642.0,-0.0009
3641.0,-0.001
3640.0,-0.0011
3639.0,-0.0012
3638.0,-0.0012
3637.0,-0.0013
3636.0,-0.0014
3635.0,-0.0014
3634.0,-0.0015
3633.0,-0.0015
3632.0,-0.0015
3631.0,-0.0015
3630.0,-0.0016
3629.0,-0.0019
3628.0,-0.002
3627.0,-0.002
3626.0,-0.0019
3625.0,-0.0017
3624.0,-0.0016
3623.0,-0.0013
3622.0,-0.0011
3621.0,-0.0008
3620.0,-0.0007
3619.0,-0.0008
3618.0,-0.0009
3617.0,-0.001
3616.0,-0.001
3615.0,-0.001
3614.0,-0.001
3613.0,-0.0011
3612.0,-0.0012
3611.0,-0.0013
3610.0,-0.0014
3609.0,-0.0015
3608.0,-0.0015
3607.0,-0.0015
3606.0,-0.0015
3605.0,-0.0015
3604.0,-0.0014
3603.0,-0.0014
3602.0,-0.0013
3601.0,-0.0012
3600.0,-0.0012
3599.0,-0.0012
3598.0,-0.0012
3597.0,-0.0012
3596.0,-0.0013
3595.0,-0.0013
3594.0,-0.0014
3593.0,-0.0015
3592.0,-0.0015
3591.0,-0.0015
3590.0,-0.0014
3589.0,-0.0012
3588.0,-0.001
3587.0,-0.001
3586.0,-0.0012
3585.0,-0.0013
3584.0,-0.0013
3583.0,-0.0012
3582.0,-0.001
3581.0,-0.0009
3580.0,-0.0009
3579.0,-0.001
3578.0,-0.0011
3577.0,-0.0011
3576.0,-0.0011
3575.0,-0.0011
3574.0,-0.001
3573.0,-0.001
3572.0,-0.0009
3571.0,-0.0009
3570.0,-0.0009
3569.0,-0.0008
3568.0,-0.0007
3567.0,-0.0006
3566.0,-0.0006
3565.0,-0.0007
3564.0,-0.0008
3563.0,-0.0009
3562.0,-0.0011
3561.0,-0.0012
3560.0,-0.0012
3559.0,-0.0011
3558.0,-0.001
3557.0,-0.0009
3556.0,-0.0007
3555.0,-0.0006
3554.0,-0.0006
3553.0,-0.0006
3552.0,-0.0008
3551.0,-0.0009
3550.0,-0.001
3549.0,-0.001
3548.0,-0.0009
3547.0,-0.0008
3546.0,-0.0007
3545.0,-0.0007
3544.0,-0.0007
3543.0,-0.0008
3542.0,-0.0008
3541.0,-0.0008
3540.0,-0.0008
3539.0,-0.0008
3538.0,-0.0007
3537.0,-0.0008
3536.0,-0.0008
3535.0,-0.0008
3534.0,-0.0008
3533.0,-0.0008
3532.0,-0.0009
3531.0,-0.0009
3530.0,-0.0008
3529.0,-0.0008
3528.0,-0.0007
3527.0,-0.0007
3526.0,-0.0006
3525.0,-0.0007
3524.0,-0.0007
3523.0,-0.0007
3522.0,-0.0008
3521.0,-0.0008
3520.0,-0.0008
3519.0,-0.0008
3518.0,-0.0009
3517.0,-0.001
3516.0,-0.0011
3515.0,-0.0011
3514.0,-0.0011
3513.0,-0.0011
3512.0,-0.001
3511.0,-0.001
3510.0,-0.0009
3509.0,-0.0009
3508.0,-0.0009
3507.0,-0.001
3506.0,-0.001
3505.0,-0.001
3504.0,-0.0009
3503.0,-0.0008
3502.0,-0.0007
3501.0,-0.0007
3500.0,-0.0008
3499.0,-0.0008
3498.0,-0.0008
3497.0,-0.0008
3496.0,-0.0008
3495.0,-0.0008
3494.0,-0.0009
3493.0,-0.001
3492.0,-0.001
3491.0,-0.001
3490.0,-0.0011
3489.0,-0.0011
3488.0,-0.0011
3487.0,-0.0011
3486.0,-0.0009
3485.0,-0.0007
3484.0,-0.0006
3483.0,-0.0006
3482.0,-0.0007
3481.0,-0.0008
3480.0,-0.0008
3479.0,-0.0008
3478.0,-0.0009
3477.0,-0.0009
3476.0,-0.0009
3475.0,-0.0009
3474.0,-0.0009
3473.0,-0.001
3472.0,-0.001
3471.0,-0.001
3470.0,-0.0009
3469.0,-0.0009
3468.0,-0.001
3467.0,-0.001
3466.0,-0.0011
3465.0,-0.0011
3464.0,-0.0011
3463.0,-0.0011
3462.0,-0.0012
3461.0,-0.0012
3460.0,-0.0012
3459.0,-0.0011
3458.0,-0.0011
3457.0,-0.0011
3456.0,-0.001
3455.0,-0.001
3454.0,-0.001
3453.0,-0.001
3452.0,-0.001
3451.0,-0.0009
3450.0,-0.0008
3449.0,-0.0008
3448.0,-0.0008
3447.0,-0.001
3446.0,-0.0011
3445.0,-0.0012
3444.0,-0.0012
3443.0,-0.0012
3442.0,-0.0012
3441.0,-0.0011
3440.0,-0.0011
3439.0,-0.0011
3438.0,-0.0011
3437.0,-0.0011
3436.0,-0.0011
3435.0,-0.0011
3434.0,-0.0011
3433.0,-0.0011
3432.0,-0.0011
3431.0,-0.0011
3430.0,-0.0011
3429.0,-0.0011
3428.0,-0.0012
3427.0,-0.0011
3426.0,-0.0011
3425.0,-0.0011
3424.0,-0.0012
3423.0,-0.0012
3422.0,-0.0011
3421.0,-0.0011
3420.0,-0.001
3419.0,-0.0009
3418.0,-0.0009
3417.0,-0.0009
3416.0,-0.0011
3415.0,-0.0012
3414.0,-0.0013
3413.0,-0.0013
3412.0,-0.0012
3411.0,-0.0012
3410.0,-0.0011
3409.0,-0.0011
3408.0,-0.001
3407.0,-0.0009
3406.0,-0.0008
3405.0,-0.0008
3404.0,-0.0009
3403.0,-0.001
3402.0,-0.0011
3401.0,-0.0012
3400.0,-0.0012
3399.0,-0.0013
3398.0,-0.0012
3397.0,-0.0012
3396.0,-0.0011
3395.0,-0.001
3394.0,-0.0008
3393.0,-0.0007
3392.0,-0.0007
3391.0,-0.0007
3390.0,-0.0007
3389.0,-0.0008
3388.0,-0.0008
3387.0,-0.0009
3386.0,-0.001
3385.0,-0.0011
3384.0,-0.0012
3383.0,-0.0012
3382.0,-0.0012
3381.0,-0.0011
3380.0,-0.0011
3379.0,-0.0011
3378.0,-0.001
3377.0,-0.001
3376.0,-0.0009
3375.0,-0.001
3374.0,-0.0011
3373.0,-0.0012
3372.0,-0.0012
3371.0,-0.0012
3370.0,-0.0011
3369.0,-0.0011
3368.0,-0.001
3367.0,-0.001
3366.0,-0.001
3365.0,-0.001
3364.0,-0.0009
3363.0,-0.0009
3362.0,-0.0008
3361.0,-0.0008
3360.0,-0.0008
3359.0,-0.0008
3358.0,-0.0009
3357.0,-0.0009
3356.0,-0.0008
3355.0,-0.0008
3354.0,-0.0008
3353.0,-0.0008
3352.0,-0.0008
3351.0,-0.0009
3350.0,-0.001
3349.0,-0.001
3348.0,-0.0011
3347.0,-0.0012
3346.0,-0.0011
3345.0,-0.001
3344.0,-0.0009
3343.0,-0.0008
3342.0,-0.0008
3341.0,-0.0007
3340.0,-0.0007
3339.0,-0.0006
3338.0,-0.0007
3337.0,-0.0008
3336.0,-0.0009
3335.0,-0.001
3334.0,-0.001
3333.0,-0.0009
3332.0,-0.0009
3331.0,-0.0008
3330.0,-0.0009
3329.0,-0.0009
3328.0,-0.001
3327.0,-0.001
3326.0,-0.001
3325.0,-0.001
3324.0,-0.0011
3323.0,-0.0011
3322.0,-0.0011
3321.0,-0.001
3320.0,-0.0009
3319.0,-0.0009
3318.0,-0.0009
3317.0,-0.0009
3316.0,-0.0009
3315.0,-0.001
3314.0,-0.0011
3313.0,-0.0011
3312.0,-0.0012
3311.0,-0.0012
3310.0,-0.0012
3309.0,-0.0012
3308.0,-0.0011
3307.0,-0.0011
3306.0,-0.0011
3305.0,-0.0011
3304.0,-0.001
3303.0,-0.001
3302.0,-0.0009
3301.0,-0.0009
3300.0,-0.0009
3299.0,-0.0009
3298.0,-0.001
3297.0,-0.0011
3296.0,-0.0011
3295.0,-0.0011
3294.0,-0.0011
3293.0,-0.001
3292.0,-0.001
3291.0,-0.0009
3290.0,-0.001
3289.0,-0.001
3288.0,-0.0011
3287.0,-0.0011
3286.0,-0.0011
3285.0,-0.0011
3284.0,-0.0011
3283.0,-0.0011
3282.0,-0.001
3281.0,-0.001
3280.0,-0.001
3279.0,-0.001
3278.0,-0.0009
3277.0,-0.0009
3276.0,-0.0009
3275.0,-0.001
3274.0,-0.0011
3273.0,-0.0012
3272.0,-0.0012
3271.0,-0.0012
3270.0,-0.0012
3269.0,-0.0011
3268.0,-0.0011
3267.0,-0.001
3266.0,-0.0009
3265.0,-0.0009
3264.0,-0.0009
3263.0,-0.0009
3262.0,-0.0009
3261.0,-0.001
3260.0,-0.001
3259.0,-0.0011
3258.0,-0.0012
3257.0,-0.0012
3256.0,-0.0012
3255.0,-0.0012
3254.0,-0.0011
3253.0,-0.0011
3252.0,-0.0011
3251.0,-0.001
3250.0,-0.0009
3249.0,-0.0008
3248.0,-0.0008
3247.0,-0.0007
3246.0,-0.0008
3245.0,-0.0009
3244.0,-0.0009
3243.0,-0.001
3242.0,-0.001
3241.0,-0.001
3240.0,-0.0011
3239.0,-0.0011
3238.0,-0.001
3237.0,-0.001
3236.0,-0.0008
3235.0,-0.0008
3234.0,-0.0008
3233.0,-0.0009
3232.0,-0.001
3231.0,-0.001
3230.0,-0.001
3229.0,-0.001
3228.0,-0.001
3227.0,-0.001
3226.0,-0.001
3225.0,-0.001
3224.0,-0.001
3223.0,-0.001
3222.0,-0.001
3221.0,-0.001
3220.0,-0.0009
3219.0,-0.0008
3218.0,-0.0008
3217.0,-0.0009
3216.0,-0.0009
3215.0,-0.001
3214.0,-0.001
3213.0,-0.001
3212.0,-0.001
3211.0,-0.001
3210.0,-0.001
3209.0,-0.0011
3208.0,-0.001
3207.0,-0.001
3206.0,-0.0009
3205.0,-0.0008
3204.0,-0.0008
3203.0,-0.0008
3202.0,-0.0008
3201.0,-0.0008
3200.0,-0.0007
3199.0,-0.0007
3198.0,-0.0007
3197.0,-0.0008
3196.0,-0.0009
3195.0,-0.001
3194.0,-0.001
3193.0,-0.001
3192.0,-0.0009
3191.0,-0.0008
3190.0,-0.0007
3189.0,-0.0006
3188.0,-0.0006
3187.0,-0.0007
3186.0,-0.0008
3185.0,-0.0008
3184.0,-0.0008
3183.0,-0.0008
3182.0,-0.0008
3181.0,-0.0008
3180.0,-0.0009
3179.0,-0.0009
3178.0,-0.0009
3177.0,-0.0009
3176.0,-0.0008
3175.0,-0.0008
3174.0,-0.0008
3173.0,-0.0009
3172.0,-0.0009
3171.0,-0.0009
3170.0,-0.0009
3169.0,-0.0008
3168.0,-0.0008
3167.0,-0.0009
3166.0,-0.0009
3165.0,-0.001
3164.0,-0.0009
3163.0,-0.0009
3162.0,-0.0008
3161.0,-0.0008
3160.0,-0.0009
3159.0,-0.0008
3158.0,-0.0008
3157.0,-0.0008
3156.0,-0.0007
3155.0,-0.0007
3154.0,-0.0007
3153.0,-0.0008
3152.0,-0.0008
3151.0,-0.0008
3150.0,-0.0008
3149.0,-0.0008
3148.0,-0.0008
3147.0,-0.0008
3146.0,-0.0008
3145.0,-0.0008
3144.0,-0.0008
3143.0,-0.0009
3142.0,-0.0008
3141.0,-0.0008
3140.0,-0.0007
3139.0,-0.0006
3138.0,-0.0006
3137.0,-0.0006
3136.0,-0.0007
3135.0,-0.0008
3134.0,-0.0008
3133.0,-0.0008
3132.0,-0.0007
3131.0,-0.0007
3130.0,-0.0007
3129.0,-0.0007
3128.0,-0.0007
3127.0,-0.0007
3126.0,-0.0008
3125.0,-0.0008
3124.0,-0.0008
3123.0,-0.0008
3122.0,-0.0009
3121.0,-0.0009
3120.0,-0.0009
3119.0,-0.0009
3118.0,-0.0009
3117.0,-0.0008
3116.0,-0.0008
3115.0,-0.0007
3114.0,-0.0007
3113.0,-0.0007
3112.0,-0.0007
3111.0,-0.0007
3110.0,-0.0007
3109.0,-0.0007
3108.0,-0.0008
3107.0,-0.0008
3106.0,-0.0008
3105.0,-0.0008
3104.0,-0.0008
3103.0,-0.0008
3102.0,-0.0008
3101.0,-0.0008
3100.0,-0.0007
3099.0,-0.0007
3098.0,-0.0007
3097.0,-0.0007
3096.0,-0.0006
3095.0,-0.0006
3094.0,-0.0006
3093.0,-0.0007
3092.0,-0.0007
3091.0,-0.0007
3090.0,-0.0007
3089.0,-0.0007
3088.0,-0.0008
3087.0,-0.0008
3086.0,-0.0008
3085.0,-0.0009
3084.0,-0.0009
3083.0,-0.0008
3082.0,-0.0008
3081.0,-0.0007
3080.0,-0.0007
3079.0,-0.0007
3078.0,-0.0007
3077.0,-0.0007
3076.0,-0.0007
3075.0,-0.0007
3074.0,-0.0008
3073.0,-0.0008
3072.0,-0.0008
3071.0,-0.0008
3070.0,-0.0007
3069.0,-0.0006
3068.0,-0.0006
3067.0,-0.0006
3066.0,-0.0007
3065.0,-0.0007
3064.0,-0.0007
3063.0,-0.0007
3062.0,-0.0007
3061.0,-0.0006
3060.0,-0.0006
3059.0,-0.0006
3058.0,-0.0006
3057.0,-0.0006
3056.0,-0.0006
3055.0,-0.0007
3054.0,-0.0007
3053.0,-0.0007
3052.0,-0.0007
3051.0,-0.0007
3050.0,-0.0007
3049.0,-0.0006
3048.0,-0.0006
3047.0,-0.0005
3046.0,-0.0006
3045.0,-0.0006
3044.0,-0.0007
3043.0,-0.0007
3042.0,-0.0007
3041.0,-0.0007
3040.0,-0.0006
3039.0,-0.0006
3038.0,-0.0006
3037.0,-0.0006
3036.0,-0.0006
3035.0,-0.0006
3034.0,-0.0006
3033.0,-0.0005
3032.0,-0.0004
3031.0,-0.0004
3030.0,-0.0005
3029.0,-0.0006
3028.0,-0.0008
3027.0,-0.0008
3026.0,-0.0009
3025.0,-0.0008
3024.0,-0.0008
3023.0,-0.0007
3022.0,-0.0006
3021.0,-0.0006
3020.0,-0.0006
3019.0,-0.0006
3018.0,-0.0006
3017.0,-0.0006
3016.0,-0.0006
3015.0,-0.0006
3014.0,-0.0006
3013.0,-0.0006
3012.0,-0.0006
3011.0,-0.0005
3010.0,-0.0005
3009.0,-0.0005
3008.0,-0.0005
3007.0,-0.0005
3006.0,-0.0005
3005.0,-0.0004
3004.0,-0.0004
3003.0,-0.0004
3002.0,-0.0004
3001.0,-0.0005
3000.0,-0.0006
2999.0,-0.0006
2998.0,-0.0007
2997.0,-0.0007
2996.0,-0.0007
2995.0,-0.0006
2994.0,-0.0005
2993.0,-0.0005
2992.0,-0.0005
2991.0,-0.0005
2990.0,-0.0006
2989.0,-0.0006
2988.0,-0.0006
2987.0,-0.0006
2986.0,-0.0006
2985.0,-0.0006
2984.0,-0.0006
2983.0,-0.0006
2982.0,-0.0007
2981.0,-0.0007
2980.0,-0.0007
2979.0,-0.0007
2978.0,-0.0007
2977.0,-0.0007
2976.0,-0.0006
2975.0,-0.0006
2974.0,-0.0006
2973.0,-0.0006
2972.0,-0.0006
2971.0,-0.0006
2970.0,-0.0005
2969.0,-0.0005
2968.0,-0.0004
2967.0,-0.0004
2966.0,-0.0004
2965.0,-0.0004
2964.0,-0.0004
2963.0,-0.0005
2962.0,-0.0005
2961.0,-0.0005
2960.0,-0.0006
2959.0,-0.0006
2958.0,-0.0006
2957.0,-0.0006
2956.0,-0.0006
2955.0,-0.0006
2954.0,-0.0006
2953.0,-0.0006
2952.0,-0.0006
2951.0,-0.0006
2950.0,-0.0006
2949.0,-0.0006
2948.0,-0.0006
2947.0,-0.0005
2946.0,-0.0005
2945.0,-0.0005
2944.0,-0.0006
2943.0,-0.0006
2942.0,-0.0006
2941.0,-0.0006
2940.0,-0.0006
2939.0,-0.0005
2938.0,-0.0005
2937.0,-0.0005
2936.0,-0.0006
2935.0,-0.0006
2934.0,-0.0007
2933.0,-0.0007
2932.0,-0.0007
2931.0,-0.0007
2930.0,-0.0007
2929.0,-0.0006
2928.0,-0.0006
2927.0,-0.0006
2926.0,-0.0006
2925.0,-0.0007
2924.0,-0.0007
2923.0,-0.0006
2922.0,-0.0006
2921.0,-0.0005
2920.0,-0.0005
2919.0,-0.0005
2918.0,-0.0005
2917.0,-0.0005
2916.0,-0.0005
2915.0,-0.0005
2914.0,-0.0005
2913.0,-0.0005
2912.0,-0.0005
2911.0,-0.0006
2910.0,-0.0007
2909.0,-0.0007
2908.0,-0.0006
2907.0,-0.0006
2906.0,-0.0006
2905.0,-0.0007
2904.0,-0.0007
2903.0,-0.0007
2902.0,-0.0007
2901.0,-0.0007
2900.0,-0.0006
2899.0,-0.0006
2898.0,-0.0006
2897.0,-0.0006
2896.0,-0.0006
2895.0,-0.0006
2894.0,-0.0006
2893.0,-0.0006
2892.0,-0.0006
2891.0,-0.0005
2890.0,-0.0005
2889.0,-0.0005
2888.0,-0.0005
2887.0,-0.0005
2886.0,-0.0005
2885.0,-0.0005
2884.0,-0.0005
2883.0,-0.0005
2882.0,-0.0005
2881.0,-0.0005
2880.0,-0.0005
2879.0,-0.0005
2878.0,-0.0005
2877.0,-0.0005
2876.0,-0.0005
2875.0,-0.0005
2874.0,-0.0005
2873.0,-0.0005
2872.0,-0.0005
2871.0,-0.0004
2870.0,-0.0004
2869.0,-0.0004
2868.0,-0.0004
2867.0,-0.0004
2866.0,-0.0004
2865.0,-0.0004
2864.0,-0.0004
2863.0,-0.0004
2862.0,-0.0005
2861.0,-0.0005
2860.0,-0.0006
2859.0,-0.0006
2858.0,-0.0006
2857.0,-0.0006
2856.0,-0.0006
2855.0,-0.0005
2854.0,-0.0004
2853.0,-0.0004
2852.0,-0.0004
2851.0,-0.0004
2850.0,-0.0004
2849.0,-0.0004
2848.0,-0.0004
2847.0,-0.0004
2846.0,-0.0004
2845.0,-0.0004
2844.0,-0.0005
2843.0,-0.0006
2842.0,-0.0006
2841.0,-0.0005
2840.0,-0.0005
2839.0,-0.0004
2838.0,-0.0004
2837.0,-0.0005
2836.0,-0.0005
2835.0,-0.0006
2834.0,-0.0006
2833.0,-0.0006
2832.0,-0.0006
2831.0,-0.0007
2830.0,-0.0007
2829.0,-0.0007
2828.0,-0.0007
2827.0,-0.0007
2826.0,-0.0006
2825.0,-0.0005
2824.0,-0.0005
2823.0,-0.0004
2822.0,-0.0004
2821.0,-0.0004
2820.0,-0.0005
2819.0,-0.0005
2818.0,-0.0006
2817.0,-0.0006
2816.0,-0.0005
2815.0,-0.0005
2814.0,-0.0005
2813.0,-0.0005
2812.0,-0.0005
2811.0,-0.0006
2810.0,-0.0006
2809.0,-0.0006
2808.0,-0.0005
2807.0,-0.0005
2806.0,-0.0004
2805.0,-0.0005
2804.0,-0.0005
2803.0,-0.0005
2802.0,-0.0005
2801.0,-0.0005
2800.0,-0.0005
2799.0,-0.0005
2798.0,-0.0005
2797.0,-0.0005
2796.0,-0.0006
2795.0,-0.0006
2794.0,-0.0006
2793.0,-0.0006
2792.0,-0.0006
2791.0,-0.0006
2790.0,-0.0006
2789.0,-0.0006
2788.0,-0.0006
2787.0,-0.0006
2786.0,-0.0006
2785.0,-0.0006
2784.0,-0.0006
2783.0,-0.0005
2782.0,-0.0005
2781.0,-0.0005
2780.0,-0.0005
2779.0,-0.0005
2778.0,-0.0005
2777.0,-0.0005
2776.0,-0.0005
2775.0,-0.0005
2774.0,-0.0005
2773.0,-0.0005
2772.0,-0.0005
2771.0,-0.0004
2770.0,-0.0003
2769.0,-0.0003
2768.0,-0.0003
2767.0,-0.0003
2766.0,-0.0004
2765.0,-0.0004
2764.0,-0.0005
2763.0,-0.0006
2762.0,-0.0007
2761.0,-0.0008
2760.0,-0.0008
2759.0,-0.0008
2758.0,-0.0007
2757.0,-0.0006
2756.0,-0.0006
2755.0,-0.0006
2754.0,-0.0005
2753.0,-0.0006
2752.0,-0.0006
2751.0,-0.0006
2750.0,-0.0006
2749.0,-0.0006
2748.0,-0.0006
2747.0,-0.0005
2746.0,-0.0005
2745.0,-0.0005
2744.0,-0.0006
2743.0,-0.0005
2742.0,-0.0005
2741.0,-0.0005
2740.0,-0.0005
2739.0,-0.0004
2738.0,-0.0004
2737.0,-0.0004
2736.0,-0.0004
2735.0,-0.0004
2734.0,-0.0004
2733.0,-0.0005
2732.0,-0.0005
2731.0,-0.0005
2730.0,-0.0006
2729.0,-0.0006
2728.0,-0.0006
2727.0,-0.0005
2726.0,-0.0005
2725.0,-0.0005
2724.0,-0.0005
2723.0,-0.0005
2722.0,-0.0006
2721.0,-0.0006
2720.0,-0.0005
2719.0,-0.0004
2718.0,-0.0003
2717.0,-0.0003
2716.0,-0.0004
2715.0,-0.0004
2714.0,-0.0004
2713.0,-0.0004
2712.0,-0.0004
2711.0,-0.0004
2710.0,-0.0004
2709.0,-0.0004
2708.0,-0.0004
2707.0,-0.0005
2706.0,-0.0005
2705.0,-0.0004
2704.0,-0.0005
2703.0,-0.0005
2702.0,-0.0005
2701.0,-0.0005
2700.0,-0.0005
2699.0,-0.0005
2698.0,-0.0004
2697.0,-0.0004
2696.0,-0.0004
2695.0,-0.0004
2694.0,-0.0004
2693.0,-0.0004
2692.0,-0.0004
2691.0,-0.0004
2690.0,-0.0004
2689.0,-0.0005
2688.0,-0.0005
2687.0,-0.0005
2686.0,-0.0005
2685.0,-0.0005
2684.0,-0.0005
2683.0,-0.0005
2682.0,-0.0005
2681.0,-0.0005
2680.0,-0.0005
2679.0,-0.0005
2678.0,-0.0004
2677.0,-0.0004
2676.0,-0.0004
2675.0,-0.0004
2674.0,-0.0004
2673.0,-0.0003
2672.0,-0.0003
2671.0,-0.0003
2670.0,-0.0003
2669.0,-0.0004
2668.0,-0.0004
2667.0,-0.0005
2666.0,-0.0005
2665.0,-0.0005
2664.0,-0.0005
2663.0,-0.0005
2662.0,-0.0004
2661.0,-0.0004
