nm,Intensity
528.615,1830.5
528.699,1831.15
528.784,1830.92
528.868,1830.79
528.952,1831.14
529.036,1831.17
529.121,1830.82
529.205,1831.04
529.289,1831.36
529.373,1830.93
529.458,1830.81
529.542,1831.15
529.626,1830.4
529.71,1831.13
529.795,1831.57
529.879,1831.07
529.963,1830.73
530.047,1831.28
530.132,1830.67
530.216,1831.03
530.3,1830.97
530.384,1831.43
530.469,1831.21
530.553,1831.45
530.637,1831.57
530.721,1831.6
530.806,1832.02
530.89,1831.9
530.974,1832.27
531.058,1832.26
531.143,1833.59
531.227,1833.36
531.311,1834.81
531.395,1836.33
531.479,1838.46
531.564,1844.87
531.648,1875.71
531.732,2009.63
531.816,2434.75
531.901,3101.92
531.985,3459.24
532.069,3371.64
532.153,2742.49
532.237,2156.2
532.322,1870.68
532.406,1837.33
532.49,1834.0
532.574,1833.68
532.658,1833.63
532.743,1833.4
532.827,1834.19
532.911,1834.26
532.995,1834.9
533.079,1834.95
533.164,1836.79
533.248,1839.17
533.332,1846.9
533.416,1869.96
533.5,1940.82
533.585,2120.81
533.669,2422.15
533.753,2789.57
533.837,3098.4
533.921,3323.77
534.005,3484.71
534.09,3565.29
534.174,3621.43
534.258,3623.74
534.342,3607.09
534.426,3614.95
534.511,3658.4
534.595,3702.09
534.679,3753.12
534.763,3743.24
534.847,3761.31
534.931,3793.03
535.016,3798.85
535.1,3804.41
535.184,3840.58
535.268,3873.08
535.352,3898.27
535.436,3928.43
535.52,3938.91
535.605,3908.92
535.689,3894.25
535.773,3890.59
535.857,3885.07
535.941,3906.12
536.025,3963.34
536.109,3978.96
536.194,3974.0
536.278,3976.99
536.362,3978.84
536.446,3979.62
536.53,3991.13
536.614,3977.35
536.698,3930.59
536.783,3942.68
536.867,3963.94
536.951,3971.05
537.035,3998.72
537.119,4015.69
537.203,4061.45
537.287,4084.78
537.371,4085.71
537.456,4064.78
537.54,4086.19
537.624,4100.47
537.708,4105.91
537.792,4107.79
537.876,4116.11
537.96,4133.5
538.044,4124.61
538.128,4109.09
538.213,4105.48
538.297,4116.51
538.381,4102.34
538.465,4123.01
538.549,4151.63
538.633,4161.61
538.717,4181.29
538.801,4183.93
538.885,4178.69
538.969,4188.79
539.053,4198.37
539.138,4238.2
539.222,4260.39
539.306,4281.93
539.39,4304.61
539.474,4321.91
539.558,4302.59
539.642,4295.55
539.726,4333.04
539.81,4357.51
539.894,4360.28
539.978,4354.21
540.062,4332.02
540.147,4362.41
540.231,4382.49
540.315,4374.27
540.399,4350.98
540.483,4389.81
540.567,4392.91
540.651,4384.0
540.735,4386.33
540.819,4413.8
540.903,4406.32
540.987,4400.2
541.071,4425.67
541.155,4441.0
541.239,4434.3
541.323,4450.24
541.407,4472.79
541.491,4471.6
541.575,4490.39
541.66,4501.09
541.744,4539.45
541.828,4539.66
541.912,4508.21
541.996,4492.21
542.08,4498.99
542.164,4509.23
542.248,4504.23
542.332,4550.72
542.416,4579.49
542.5,4619.2
542.584,4646.75
542.668,4630.79
542.752,4594.44
542.836,4593.89
542.92,4635.59
543.004,4669.89
543.088,4661.82
543.172,4660.79
543.256,4681.39
543.34,4709.21
543.424,4675.03
543.508,4663.64
543.592,4655.69
543.676,4663.71
543.76,4692.83
543.844,4696.58
543.928,4702.19
544.012,4723.97
544.096,4749.92
544.18,4702.82
544.264,4688.21
544.348,4700.47
544.432,4747.09
544.516,4763.68
544.6,4771.0
544.684,4790.04
544.768,4803.36
544.852,4788.78
544.936,4773.11
545.02,4799.79
545.104,4792.86
545.188,4807.15
545.272,4770.25
545.356,4775.57
545.44,4830.99
545.524,4861.29
545.608,4884.89
545.692,4858.68
545.776,4834.89
545.86,4858.54
545.944,4913.31
546.028,4950.06
546.112,4923.33
546.195,4906.25
546.279,4912.01
546.363,4923.09
546.447,4928.43
546.531,4944.12
546.615,4956.51
546.699,4958.45
546.783,4931.71
546.867,4913.03
546.951,4945.69
547.035,4976.91
547.119,4953.59
547.203,4964.55
547.287,5003.17
547.371,5029.74
547.455,5002.99
547.539,5012.71
547.623,4991.76
547.706,4999.8
547.79,4987.13
547.874,5031.65
547.958,5007.81
548.042,5042.85
548.126,5123.43
548.21,5126.67
548.294,5105.9
548.378,5085.79
548.462,5101.05
548.546,5109.45
548.63,5145.6
548.713,5177.98
548.797,5160.25
548.881,5151.31
548.965,5155.57
549.049,5119.65
549.133,5120.81
549.217,5127.5
549.301,5075.49
549.385,5105.53
549.469,5106.21
549.552,5131.69
549.636,5167.93
549.72,5160.87
549.804,5133.11
549.888,5166.39
549.972,5167.49
550.056,5144.53
550.14,5155.47
550.224,5171.01
550.307,5151.67
550.391,5171.0
550.475,5226.51
550.559,5234.93
550.643,5239.85
550.727,5223.03
550.811,5285.56
550.895,5278.7
550.978,5273.38
551.062,5282.55
551.146,5292.56
551.23,5317.35
551.314,5346.16
551.398,5351.25
551.482,5371.49
551.565,5352.73
551.649,5345.15
551.733,5366.88
551.817,5381.66
551.901,5407.71
551.985,5419.23
552.069,5360.25
552.152,5331.14
552.236,5331.64
552.32,5391.94
552.404,5395.57
552.488,5382.61
552.572,5369.59
552.655,5413.11
552.739,5410.79
552.823,5379.8
552.907,5392.25
552.991,5407.95
553.075,5397.31
553.158,5417.68
553.242,5398.71
553.326,5373.94
553.41,5422.93
553.494,5456.85
553.577,5476.04
553.661,5505.62
553.745,5463.03
553.829,5499.23
553.913,5507.11
553.997,5483.55
554.08,5447.97
554.164,5468.47
554.248,5526.12
554.332,5576.18
554.416,5556.75
554.499,5527.84
554.583,5570.29
554.667,5584.01
554.751,5581.89
554.835,5571.67
554.918,5574.29
555.002,5577.55
555.086,5597.41
555.17,5653.03
555.253,5616.87
555.337,5583.53
555.421,5572.28
555.505,5628.36
555.589,5664.12
555.672,5656.05
555.756,5612.33
555.84,5591.3
555.924,5596.79
556.007,5648.81
556.091,5639.55
556.175,5627.76
556.259,5644.59
556.342,5682.81
556.426,5658.23
556.51,5670.77
556.594,5710.27
556.678,5709.71
556.761,5690.6
556.845,5707.08
556.929,5691.34
557.013,5708.28
557.096,5727.76
557.18,5681.41
557.264,5674.67
557.347,5684.8
557.431,5744.55
557.515,5779.33
557.599,5744.82
557.682,5703.15
557.766,5736.53
557.85,5767.95
557.934,5778.57
558.017,5782.12
558.101,5790.75
558.185,5816.37
558.269,5818.21
558.352,5846.95
558.436,5851.81
558.52,5809.42
558.603,5815.85
558.687,5828.47
558.771,5825.45
558.855,5782.61
558.938,5808.95
559.022,5846.41
559.106,5851.31
559.189,5853.33
559.273,5896.14
559.357,5888.05
559.44,5862.36
559.524,5861.57
559.608,5906.52
559.692,5910.61
559.775,5920.13
559.859,5915.17
559.943,5915.64
560.026,5882.49
560.11,5918.53
560.194,5932.41
560.277,5907.31
560.361,5910.77
560.445,5939.52
560.528,5926.63
560.612,5930.99
560.696,5988.05
560.779,5992.07
560.863,5988.3
560.947,5980.03
561.03,5991.13
561.114,5999.21
561.198,6028.03
561.281,6042.95
561.365,6051.47
561.449,6057.38
561.532,6053.7
561.616,6055.17
561.7,6018.09
561.783,6055.05
561.867,6068.38
561.951,6069.03
562.034,6073.59
562.118,6041.85
562.202,6065.53
562.285,6092.95
562.369,6070.17
562.452,6066.89
562.536,6082.42
562.62,6062.13
562.703,6053.03
562.787,6108.22
562.871,6104.46
562.954,6153.39
563.038,6147.47
563.122,6172.17
563.205,6169.23
563.289,6118.96
563.372,6131.12
563.456,6115.89
563.54,6124.31
563.623,6131.9
563.707,6194.75
563.79,6246.89
563.874,6240.17
563.958,6278.33
564.041,6238.43
564.125,6274.79
564.208,6292.82
564.292,6243.99
564.376,6222.5
564.459,6264.07
564.543,6289.49
564.626,6236.48
564.71,6263.45
564.794,6339.85
564.877,6352.51
564.961,6340.2
565.044,6305.95
565.128,6280.99
565.212,6338.01
565.295,6325.47
565.379,6335.83
565.462,6359.15
565.546,6338.89
565.629,6341.34
565.713,6406.0
565.797,6450.88
565.88,6461.48
565.964,6525.49
566.047,6468.29
566.131,6429.12
566.214,6417.73
566.298,6409.18
566.381,6395.69
566.465,6410.59
566.549,6431.11
566.632,6442.75
566.716,6387.18
566.799,6356.74
566.883,6337.58
566.966,6368.11
567.05,6392.96
567.133,6356.92
567.217,6382.31
567.3,6438.89
567.384,6436.43
567.468,6395.27
567.551,6397.8
567.635,6390.65
567.718,6371.06
567.802,6396.2
567.885,6456.45
567.969,6485.36
568.052,6463.07
568.136,6430.97
568.219,6467.93
568.303,6479.07
568.386,6530.17
568.47,6573.99
568.553,6569.37
568.637,6527.73
568.72,6557.16
568.804,6549.54
568.887,6533.39
568.971,6587.72
569.054,6545.2
569.138,6544.55
569.221,6614.07
569.305,6631.75
569.388,6599.77
569.472,6556.58
569.555,6581.83
569.639,6636.59
569.722,6656.22
569.806,6638.09
569.889,6621.91
569.973,6655.53
570.056,6662.39
570.14,6641.12
570.223,6629.58
570.307,6599.63
570.39,6642.81
570.474,6683.69
570.557,6669.36
570.64,6648.81
570.724,6657.42
570.807,6696.85
570.891,6717.19
570.974,6737.92
571.058,6748.29
571.141,6747.37
571.225,6801.33
571.308,6869.31
571.392,6904.17
571.475,6888.94
571.558,6855.9
571.642,6877.99
571.725,6875.59
571.809,6837.09
571.892,6812.41
571.976,6833.21
572.059,6873.05
572.143,6835.84
572.226,6770.63
572.309,6810.87
572.393,6891.03
572.476,6935.61
572.56,6926.14
572.643,6937.11
572.726,6842.98
572.81,6839.92
572.893,6880.92
572.977,6904.09
573.06,6899.72
573.144,6907.27
573.227,6905.99
573.31,6874.69
573.394,6859.77
573.477,6850.52
573.561,6892.07
573.644,6924.98
573.727,6904.24
573.811,6825.07
573.894,6840.42
573.978,6865.05
574.061,6840.17
574.144,6852.61
574.228,6832.31
574.311,6861.55
574.395,6854.68
574.478,6854.47
574.561,6838.08
574.645,6868.61
574.728,6919.35
574.811,6906.6
574.895,6936.08
574.978,6887.05
575.062,6873.98
575.145,6906.15
575.228,6901.01
575.312,6883.27
575.395,6873.35
575.478,6941.25
575.562,6932.49
575.645,6948.55
575.728,6967.84
575.812,6965.51
575.895,7026.3
575.978,7093.89
576.062,7089.09
576.145,7092.99
576.228,7055.47
576.312,7091.74
576.395,7069.64
576.478,7066.98
576.562,7054.28
576.645,7018.19
576.728,7068.55
576.812,7043.31
576.895,7021.09
576.978,7024.89
577.062,6971.13
577.145,6960.53
577.228,6952.9
577.312,6969.22
577.395,6997.59
577.478,6941.39
577.562,6888.27
577.645,6906.37
577.728,6898.01
577.812,6892.83
577.895,6922.83
577.978,6912.47
578.062,6874.75
578.145,6846.31
578.228,6892.62
578.311,6983.98
578.395,6995.9
578.478,6912.49
578.561,6881.72
578.645,6872.09
578.728,6912.54
578.811,6914.01
578.894,6920.5
578.978,6952.81
579.061,6925.07
579.144,6990.38
579.228,6984.25
579.311,6962.63
579.394,6963.21
579.477,6927.48
579.561,6938.64
579.644,6982.08
579.727,6964.42
579.81,6922.25
579.894,7018.97
579.977,7065.93
580.06,7061.85
580.144,7040.35
580.227,7020.93
580.31,7011.65
580.393,7018.39
580.477,6950.48
580.56,6998.99
580.643,7071.57
580.726,7134.71
580.809,7078.32
580.893,7065.25
580.976,7124.93
581.059,7096.83
581.142,7081.41
581.226,7122.44
581.309,7088.91
581.392,7108.45
581.475,7077.06
581.559,7123.61
581.642,7166.04
581.725,7183.74
581.808,7152.15
581.891,7131.3
581.975,7106.8
582.058,7100.95
582.141,7082.92
582.224,7038.54
582.307,7066.99
582.391,7055.1
582.474,7031.37
582.557,7043.07
582.64,7023.26
582.723,6925.18
582.807,6852.97
582.89,6864.43
582.973,6913.62
583.056,6952.75
583.139,6957.85
583.223,6976.69
583.306,6986.91
583.389,6936.33
583.472,6909.24
583.555,6924.1
583.639,6927.35
583.722,6918.59
583.805,6917.79
583.888,6954.87
583.971,6955.63
584.054,6933.93
584.138,6923.37
584.221,6887.61
584.304,6908.55
584.387,6905.53
584.47,6925.71
584.553,6900.23
584.636,6837.29
584.72,6814.74
584.803,6837.75
584.886,6836.73
584.969,6817.98
585.052,6804.09
585.135,6832.78
585.218,6926.98
585.302,6906.88
585.385,6801.99
585.468,6791.35
585.551,6812.95
585.634,6858.65
585.717,6862.57
585.8,6847.09
585.884,6764.75
585.967,6803.6
586.05,6773.63
586.133,6800.21
586.216,6818.45
586.299,6845.56
586.382,6828.52
586.465,6772.43
586.548,6812.87
586.632,6827.59
586.715,6822.36
586.798,6842.49
586.881,6915.69
586.964,6916.5
587.047,6863.31
587.13,6822.43
587.213,6831.31
587.296,6851.95
587.379,6854.21
587.463,6812.47
587.546,6875.93
587.629,6934.05
587.712,6877.15
587.795,6888.32
587.878,6928.2
587.961,6835.89
588.044,6823.43
588.127,6853.95
588.21,6874.2
588.293,6842.39
588.376,6849.98
588.459,6879.82
588.542,6876.86
588.626,6899.83
588.709,6911.41
588.792,6796.18
588.875,6834.37
588.958,6882.93
589.041,6838.91
589.124,6805.02
589.207,6824.33
589.29,6782.76
589.373,6743.89
589.456,6757.06
589.539,6747.1
589.622,6704.73
589.705,6716.13
589.788,6805.19
589.871,6831.79
589.954,6819.97
590.037,6820.49
590.12,6790.53
590.203,6740.92
590.286,6758.47
590.369,6725.99
590.452,6725.38
590.535,6778.32
590.618,6865.06
590.701,6865.07
590.784,6758.11
590.867,6684.75
590.95,6754.44
591.033,6770.87
591.116,6798.11
591.199,6787.17
591.282,6840.01
591.365,6808.43
591.448,6774.47
591.531,6747.33
591.614,6737.11
591.697,6775.77
591.78,6837.9
591.863,6820.37
591.946,6798.09
592.029,6811.11
592.112,6807.53
592.195,6777.09
592.278,6784.75
592.361,6781.81
592.444,6776.39
592.527,6798.51
592.61,6853.79
592.693,6818.09
592.776,6757.21
592.859,6756.89
592.942,6756.16
593.025,6777.02
593.108,6713.19
593.191,6684.75
593.274,6752.39
593.357,6774.32
593.44,6745.16
593.523,6758.95
593.606,6737.41
593.688,6674.55
593.771,6669.26
593.854,6734.47
593.937,6713.51
594.02,6729.31
594.103,6710.43
594.186,6703.06
594.269,6762.18
594.352,6797.99
594.435,6754.81
594.518,6678.41
594.601,6632.24
594.684,6638.51
594.767,6688.83
594.849,6700.86
594.932,6741.9
595.015,6781.05
595.098,6721.85
595.181,6752.15
595.264,6751.27
595.347,6706.03
595.43,6687.71
595.513,6717.21
595.596,6717.25
595.678,6748.85
595.761,6745.49
595.844,6676.86
595.927,6692.15
596.01,6728.38
596.093,6715.3
596.176,6674.25
596.259,6688.19
596.341,6745.53
596.424,6750.11
596.507,6775.82
596.59,6815.61
596.673,6774.07
596.756,6740.58
596.839,6754.52
596.922,6682.87
597.004,6663.25
597.087,6693.31
597.17,6724.29
597.253,6700.14
597.336,6664.58
597.419,6653.08
597.502,6666.29
597.584,6622.06
597.667,6658.91
597.75,6722.27
597.833,6741.86
597.916,6688.63
597.999,6661.92
598.081,6672.29
598.164,6671.37
598.247,6660.13
598.33,6655.43
598.413,6596.78
598.496,6638.05
598.578,6646.87
598.661,6645.52
598.744,6645.14
598.827,6674.91
598.91,6679.19
598.992,6667.07
599.075,6642.79
599.158,6676.63
599.241,6707.11
599.324,6676.29
599.406,6639.83
599.489,6644.24
599.572,6677.83
599.655,6703.66
599.738,6636.22
599.82,6628.02
599.903,6616.33
599.986,6542.53
600.069,6532.21
600.152,6645.29
600.234,6690.07
600.317,6662.98
600.4,6632.11
600.483,6629.45
600.565,6643.47
600.648,6649.46
600.731,6602.55
600.814,6551.69
600.896,6534.51
600.979,6577.62
601.062,6657.03
601.145,6665.86
601.228,6569.2
601.31,6555.65
601.393,6612.52
601.476,6617.84
601.558,6618.86
601.641,6616.77
601.724,6616.09
601.807,6583.73
601.889,6564.92
601.972,6608.25
602.055,6610.49
602.138,6513.25
602.22,6496.23
602.303,6552.18
602.386,6596.55
602.469,6561.16
602.551,6554.59
602.634,6568.23
602.717,6535.25
602.799,6517.29
602.882,6487.39
602.965,6576.3
603.048,6559.63
603.13,6538.62
603.213,6520.87
603.296,6580.28
603.378,6537.13
603.461,6508.21
603.544,6553.01
603.626,6603.66
603.709,6538.05
603.792,6440.06
603.875,6472.65
603.957,6529.65
604.04,6520.31
604.123,6498.67
604.205,6472.25
604.288,6468.59
604.371,6461.39
604.453,6509.75
604.536,6510.08
604.619,6462.15
604.701,6453.09
604.784,6500.53
604.867,6524.71
604.949,6489.81
605.032,6441.47
605.115,6461.72
605.197,6418.4
605.28,6358.22
605.363,6405.01
605.445,6458.11
605.528,6458.65
605.611,6437.81
605.693,6394.01
605.776,6355.14
605.858,6426.65
605.941,6420.34
606.024,6414.71
606.106,6392.65
606.189,6439.5
606.272,6443.01
606.354,6445.09
606.437,6406.42
606.519,6361.31
606.602,6380.07
606.685,6388.23
606.767,6358.85
606.85,6422.97
606.933,6480.11
607.015,6429.87
607.098,6365.33
607.18,6403.65
607.263,6425.03
607.346,6390.28
607.428,6347.75
607.511,6339.88
607.593,6322.83
607.676,6376.55
607.759,6378.45
607.841,6383.21
607.924,6393.59
608.006,6381.13
608.089,6352.67
608.171,6364.14
608.254,6359.9
608.337,6322.93
608.419,6314.93
608.502,6308.16
608.584,6337.36
608.667,6316.11
608.749,6267.23
608.832,6315.28
608.915,6347.67
608.997,6344.33
609.08,6313.66
609.162,6329.33
609.245,6364.39
609.327,6326.79
609.41,6288.49
609.492,6217.48
609.575,6205.59
609.658,6310.47
609.74,6320.34
609.823,6296.91
609.905,6312.01
609.988,6308.01
610.07,6247.91
610.153,6218.75
610.235,6207.31
610.318,6215.51
610.4,6275.63
610.483,6288.43
610.565,6264.1
610.648,6260.51
610.73,6289.81
610.813,6294.89
610.895,6281.9
610.978,6260.0
611.06,6244.19
611.143,6231.91
611.225,6253.71
611.308,6288.53
611.39,6227.93
611.473,6139.93
611.555,6228.69
611.638,6270.12
611.72,6181.85
611.803,6158.71
611.885,6228.08
611.968,6194.09
612.05,6186.89
612.133,6254.73
612.215,6220.61
612.298,6173.67
612.38,6186.35
612.463,6199.27
612.545,6194.83
612.628,6180.87
612.71,6150.96
612.792,6145.63
612.875,6119.21
612.957,6088.22
613.04,6137.46
613.122,6210.81
613.205,6146.62
613.287,6163.17
613.37,6196.69
613.452,6175.28
613.534,6129.48
613.617,6141.5
613.699,6133.87
613.782,6120.59
613.864,6137.77
613.947,6170.21
614.029,6141.83
614.111,6138.24
614.194,6094.01
614.276,6070.07
614.359,6054.79
614.441,6090.64
614.524,6106.03
614.606,6142.45
614.688,6132.67
614.771,6145.97
614.853,6076.73
614.936,6004.58
615.018,6058.8
615.1,6142.73
615.183,6114.1
615.265,6138.36
615.348,6111.61
615.43,6063.78
615.512,6010.37
615.595,6088.79
615.677,6091.45
615.76,6039.82
615.842,6031.19
615.924,6059.11
616.007,6115.03
616.089,6128.38
616.171,6096.49
616.254,6023.75
616.336,6008.72
616.418,6038.03
616.501,6010.64
616.583,6013.82
616.666,6025.97
616.748,6005.94
616.83,6029.39
616.913,6039.05
616.995,5998.31
617.077,5978.29
617.16,5999.61
617.242,5995.75
617.324,6016.4
617.407,6037.11
617.489,6018.24
617.571,6025.58
617.654,6005.08
617.736,5965.31
617.818,6008.84
617.901,6011.97
617.983,5979.45
618.065,6008.75
618.148,5999.92
618.23,5963.85
618.312,6019.45
618.395,6009.28
618.477,5984.19
618.559,5968.23
618.641,5953.07
618.724,5929.53
618.806,5954.65
618.888,5965.97
618.971,5965.17
619.053,5997.92
619.135,5969.35
619.218,5952.45
619.3,5977.53
619.382,5985.83
619.464,5987.54
619.547,5968.27
619.629,5920.33
619.711,5969.55
619.793,6001.86
619.876,5949.45
619.958,5919.45
620.04,5933.31
620.123,5930.84
620.205,5949.82
620.287,5884.55
620.369,5893.76
620.452,5932.57
620.534,5969.64
620.616,5946.04
620.698,5939.39
620.781,5898.62
620.863,5912.87
620.945,5903.54
621.027,5872.83
621.11,5843.41
621.192,5882.57
621.274,5914.22
621.356,5912.64
621.438,5921.99
621.521,5931.52
621.603,5881.22
621.685,5799.79
621.767,5847.28
621.85,5923.13
621.932,5872.97
622.014,5860.88
622.096,5869.03
622.178,5900.15
622.261,5883.53
622.343,5855.12
622.425,5837.86
622.507,5857.04
622.589,5840.17
622.672,5821.03
622.754,5798.46
622.836,5834.9
622.918,5894.32
623.0,5872.85
623.083,5787.99
623.165,5793.56
623.247,5831.99
623.329,5817.46
623.411,5834.12
623.493,5831.27
623.576,5781.42
623.658,5765.15
623.74,5803.35
623.822,5822.23
623.904,5808.57
623.986,5802.63
624.069,5763.83
624.151,5768.29
624.233,5795.88
624.315,5798.21
624.397,5756.99
624.479,5738.16
624.561,5700.03
624.644,5756.75
624.726,5788.42
624.808,5754.1
624.89,5744.31
624.972,5763.2
625.054,5782.9
625.136,5743.92
625.218,5756.67
625.301,5741.57
625.383,5718.85
625.465,5674.55
625.547,5692.13
625.629,5746.51
625.711,5719.69
625.793,5744.95
625.875,5775.93
625.958,5713.39
626.04,5689.6
626.122,5708.31
626.204,5699.23
626.286,5678.25
626.368,5668.22
626.45,5690.88
626.532,5730.79
626.614,5855.27
626.696,5943.19
626.778,5995.42
626.86,6058.87
626.943,6107.07
627.025,6237.35
627.107,6276.59
627.189,6334.61
627.271,6291.69
627.353,6147.91
627.435,6115.46
627.517,6124.18
627.599,6082.24
627.681,6040.72
627.763,6066.62
627.845,6095.77
627.927,6057.38
628.009,5994.16
628.091,5997.23
628.173,6052.63
628.255,6136.6
628.338,6238.21
628.42,6351.05
628.502,6436.15
628.584,6350.95
628.666,6166.93
628.748,6053.78
628.83,6071.01
628.912,6086.39
628.994,6054.75
629.076,5970.92
629.158,5937.78
629.24,5932.31
629.322,5944.73
629.404,5950.79
629.486,5898.45
629.568,5875.84
629.65,5807.67
629.732,5774.75
629.814,5797.49
629.896,5819.63
629.978,5819.73
630.06,5745.59
630.142,5751.12
630.224,5771.18
630.306,5734.55
630.388,5685.57
630.47,5666.04
630.552,5670.29
630.634,5662.29
630.716,5725.98
630.798,5732.51
630.88,5615.55
630.961,5540.27
631.043,5580.49
631.125,5540.5
631.207,5518.07
631.289,5543.96
631.371,5516.0
631.453,5436.66
631.535,5430.24
631.617,5428.67
631.699,5488.65
631.781,5505.75
631.863,5454.43
631.945,5449.41
632.027,5475.59
632.109,5453.59
632.191,5401.71
632.273,5357.53
632.355,5411.27
632.436,5441.43
632.518,5475.72
632.6,5480.17
632.682,5449.01
632.764,5401.36
632.846,5403.82
632.928,5388.69
633.01,5370.77
633.092,5361.85
633.174,5360.13
633.256,5405.62
633.337,5445.35
633.419,5396.69
633.501,5310.65
633.583,5271.15
