nm,Intensity
528.65,1844.35
528.734,1845.6
528.819,1846.0
528.903,1846.1
528.987,1846.75
529.071,1846.55
529.155,1846.85
529.239,1845.05
529.324,1847.25
529.408,1845.15
529.492,1846.6
529.576,1847.5
529.66,1847.25
529.745,1846.1
529.829,1845.8
529.913,1846.75
529.997,1847.1
530.081,1844.5
530.165,1845.25
530.25,1846.25
530.334,1846.6
530.418,1846.2
530.502,1846.25
530.586,1847.2
530.67,1847.9
530.754,1846.85
530.839,1847.5
530.923,1846.9
531.007,1847.95
531.091,1847.1
531.175,1849.2
531.259,1848.25
531.344,1850.2
531.428,1851.95
531.512,1852.2
531.596,1858.6
531.68,1875.2
531.764,1961.55
531.848,2303.3
531.933,3079.25
532.017,3939.2
532.101,4191.75
532.185,3721.95
532.269,2817.0
532.353,2055.35
532.437,1870.1
532.521,1851.5
532.606,1851.7
532.69,1850.15
532.774,1850.8
532.858,1851.9
532.942,1851.8
533.026,1850.95
533.11,1856.1
533.194,1858.5
533.279,1862.2
533.363,1871.25
533.447,1913.8
533.531,2034.15
533.615,2364.75
533.699,3017.9
533.783,3945.3
533.867,4899.15
533.951,5653.05
534.036,6044.0
534.12,6223.55
534.204,6234.15
534.288,6136.8
534.372,5957.7
534.456,5763.85
534.54,5652.85
534.624,5676.55
534.708,5598.9
534.792,5491.3
534.877,5282.25
534.961,5204.7
535.045,5180.55
535.129,5133.4
535.213,5018.3
535.297,4967.35
535.381,4897.4
535.465,4798.6
535.549,4686.05
535.633,4611.95
535.717,4568.2
535.801,4503.3
535.886,4429.6
535.97,4320.55
536.054,4312.7
536.138,4282.15
536.222,4289.35
536.306,4250.9
536.39,4226.0
536.474,4243.65
536.558,4299.1
536.642,4213.3
536.726,4166.0
536.81,4178.95
536.894,4159.5
536.978,4150.6
537.062,4162.25
537.146,4163.9
537.231,4198.3
537.315,4178.75
537.399,4197.05
537.483,4245.9
537.567,4295.05
537.651,4238.2
537.735,4241.4
537.819,4198.8
537.903,4216.15
537.987,4219.2
538.071,4226.55
538.155,4229.65
538.239,4264.6
538.323,4277.95
538.407,4248.6
538.491,4210.5
538.575,4212.15
538.659,4234.65
538.743,4265.65
538.827,4310.75
538.911,4296.95
538.995,4270.0
539.079,4319.85
539.163,4311.9
539.247,4326.15
539.331,4386.35
539.415,4392.35
539.499,4398.1
539.583,4415.6
539.667,4401.1
539.751,4461.2
539.835,4488.15
539.919,4486.7
540.003,4458.6
540.087,4436.05
540.171,4421.75
540.255,4422.95
540.339,4411.6
540.423,4389.9
540.507,4402.6
540.591,4400.1
540.675,4424.65
540.759,4433.75
540.843,4446.0
540.927,4464.15
541.011,4411.45
541.095,4445.7
541.179,4426.45
541.263,4394.6
541.347,4423.55
541.431,4427.1
541.515,4464.6
541.599,4469.55
541.683,4449.65
541.767,4453.9
541.851,4422.05
541.935,4489.75
542.019,4494.2
542.103,4540.15
542.187,4568.75
542.271,4543.85
542.355,4555.15
542.439,4571.85
542.523,4569.55
542.607,4597.45
542.691,4597.55
542.775,4634.75
542.859,4632.2
542.943,4588.9
543.027,4578.25
543.111,4546.45
543.195,4570.45
543.279,4656.75
543.363,4670.75
543.446,4632.1
543.53,4618.25
543.614,4659.55
543.698,4617.75
543.782,4660.35
543.866,4662.2
543.95,4682.25
544.034,4650.75
544.118,4646.7
544.202,4672.45
544.286,4715.75
544.37,4779.7
544.454,4744.6
544.538,4645.45
544.622,4671.95
544.706,4775.4
544.789,4813.65
544.873,4788.4
544.957,4740.35
545.041,4785.65
545.125,4791.25
545.209,4804.5
545.293,4781.0
545.377,4801.4
545.461,4798.85
545.545,4822.25
545.629,4827.7
545.713,4833.6
545.796,4834.55
545.88,4798.5
545.964,4829.9
546.048,4852.1
546.132,4844.15
546.216,4842.35
546.3,4807.9
546.384,4852.85
546.468,4923.1
546.552,4974.1
546.635,4936.1
546.719,4898.45
546.803,4911.65
546.887,4873.5
546.971,4889.7
547.055,4904.95
547.139,4903.3
547.223,4941.65
547.306,4856.5
547.39,4867.2
547.474,4925.95
547.558,4961.75
547.642,4997.85
547.726,4995.5
547.81,4967.0
547.894,4934.55
547.977,4977.65
548.061,5050.75
548.145,5067.25
548.229,5078.15
548.313,5106.25
548.397,5163.3
548.481,5072.85
548.564,5114.3
548.648,5111.2
548.732,5061.55
548.816,5070.95
548.9,5101.0
548.984,5129.6
549.068,5145.7
549.151,5065.7
549.235,5013.2
549.319,5062.15
549.403,5141.0
549.487,5110.65
549.571,5097.5
549.655,5127.75
549.738,5179.6
549.822,5154.6
549.906,5147.5
549.99,5236.6
550.074,5136.3
550.158,5177.35
550.241,5278.35
550.325,5253.5
550.409,5272.05
550.493,5395.35
550.577,5596.05
550.66,5639.95
550.744,5606.45
550.828,5499.6
550.912,5424.9
550.996,5353.15
551.08,5304.25
551.163,5347.75
551.247,5396.2
551.331,5391.0
551.415,5391.1
551.499,5384.75
551.582,5414.45
551.666,5445.25
551.75,5407.9
551.834,5380.95
551.918,5429.4
552.001,5453.0
552.085,5426.1
552.169,5414.45
552.253,5404.85
552.337,5406.5
552.42,5402.65
552.504,5414.3
552.588,5463.7
552.672,5611.85
552.755,5628.65
552.839,5555.3
552.923,5487.45
553.007,5478.45
553.091,5434.25
553.174,5487.5
553.258,5542.75
553.342,5512.2
553.426,5497.75
553.509,5509.05
553.593,5541.05
553.677,5530.1
553.761,5490.0
553.844,5527.25
553.928,5591.85
554.012,5560.6
554.096,5551.75
554.179,5517.2
554.263,5570.65
554.347,5564.9
554.431,5603.1
554.514,5628.25
554.598,5653.3
554.682,5596.65
554.766,5637.5
554.849,5665.35
554.933,5760.15
555.017,5799.55
555.101,5742.45
555.184,5658.5
555.268,5703.0
555.352,5740.15
555.436,5787.65
555.519,5918.5
555.603,5953.35
555.687,5923.0
555.771,5933.85
555.854,5971.5
555.938,5978.05
556.022,5942.0
556.105,5973.75
556.189,6036.05
556.273,6076.55
556.357,6022.2
556.44,5993.1
556.524,6018.3
556.608,6047.0
556.691,6074.15
556.775,6009.05
556.859,6067.75
556.943,6118.25
557.026,6159.1
557.11,6261.0
557.194,6414.7
557.277,6444.35
557.361,6468.0
557.445,6554.55
557.528,6629.65
557.612,6555.0
557.696,6459.95
557.779,6426.85
557.863,6317.9
557.947,6255.75
558.031,6294.2
558.114,6271.9
558.198,6186.25
558.282,6266.25
558.365,6266.05
558.449,6258.05
558.533,6276.5
558.616,6279.6
558.7,6258.05
558.784,6281.5
558.867,6242.8
558.951,6180.3
559.035,6266.55
559.118,6268.5
559.202,6136.75
559.286,6145.1
559.369,6084.65
559.453,6100.75
559.537,6145.75
559.62,6152.65
559.704,6144.05
559.788,6143.7
559.871,6214.0
559.955,6261.6
560.038,6277.85
560.122,6222.4
560.206,6253.8
560.289,6267.3
560.373,6168.95
560.457,6174.3
560.54,6221.45
560.624,6261.35
560.708,6331.4
560.791,6326.25
560.875,6282.2
560.958,6273.7
561.042,6338.6
561.126,6379.75
561.209,6307.05
561.293,6334.4
561.377,6354.55
561.46,6384.25
561.544,6411.9
561.627,6370.15
561.711,6381.3
561.795,6489.55
561.878,6594.0
561.962,6652.9
562.045,6556.0
562.129,6525.05
562.213,6497.5
562.296,6554.3
562.38,6535.65
562.463,6532.85
562.547,6530.5
562.631,6557.85
562.714,6603.9
562.798,6645.3
562.881,6570.35
562.965,6550.3
563.049,6667.45
563.132,6662.5
563.216,6610.25
563.299,6614.3
563.383,6624.05
563.467,6559.9
563.55,6619.65
563.634,6722.75
563.717,6672.8
563.801,6658.65
563.884,6676.9
563.968,6654.45
564.052,6642.15
564.135,6678.2
564.219,6676.3
564.302,6750.25
564.386,6755.0
564.469,6791.3
564.553,6761.45
564.636,6859.25
564.72,6897.7
564.804,6870.0
564.887,6928.05
564.971,6983.4
565.054,7058.1
565.138,7102.8
565.221,7182.7
565.305,7186.1
565.388,7167.0
565.472,7223.15
565.556,7169.8
565.639,7272.25
565.723,7275.45
565.806,7293.75
565.89,7287.3
565.973,7364.8
566.057,7284.9
566.14,7220.15
566.224,7056.1
566.307,7034.7
566.391,7071.15
566.474,7079.7
566.558,6968.85
566.641,7007.55
566.725,7049.05
566.808,7037.05
566.892,7026.5
566.975,7032.2
567.059,7001.35
567.142,7034.9
567.226,6992.95
567.309,6976.45
567.393,7058.85
567.476,7253.45
567.56,7347.0
567.643,7344.35
567.727,7290.75
567.81,7256.75
567.894,7316.15
567.977,7317.7
568.061,7278.35
568.144,7271.9
568.228,7201.25
568.311,7168.0
568.395,7226.45
568.478,7255.85
568.562,7234.45
568.645,7240.75
568.729,7328.15
568.812,7207.5
568.896,7233.1
568.979,7306.5
569.063,7339.65
569.146,7362.65
569.23,7354.4
569.313,7379.4
569.396,7465.45
569.48,7458.85
569.563,7470.3
569.647,7523.2
569.73,7543.95
569.814,7428.95
569.897,7375.95
569.981,7531.6
570.064,7631.6
570.148,7660.75
570.231,7753.3
570.314,7712.35
570.398,7773.8
570.481,7756.95
570.565,7861.8
570.648,8048.25
570.732,8195.7
570.815,8264.8
570.898,8176.65
570.982,8335.3
571.065,8520.5
571.149,8525.05
571.232,8562.7
571.316,8493.35
571.399,8396.4
571.482,8405.9
571.566,8304.3
571.649,8265.1
571.733,8244.05
571.816,8193.75
571.9,8262.55
571.983,8189.75
572.066,8091.45
572.15,8008.75
572.233,7991.95
572.317,7935.85
572.4,7962.9
572.483,7970.2
572.567,7922.0
572.65,7932.3
572.734,7951.05
572.817,7978.45
572.9,7903.8
572.984,7811.55
573.067,7888.9
573.15,7933.2
573.234,7910.4
573.317,7902.25
573.401,7874.15
573.484,7891.85
573.567,7765.95
573.651,7838.9
573.734,7748.35
573.818,7769.15
573.901,7871.8
573.984,8038.75
574.068,7993.05
574.151,7993.5
574.234,7929.95
574.318,7890.55
574.401,7780.6
574.484,7812.3
574.568,7865.0
574.651,7932.85
574.734,7898.55
574.818,7881.0
574.901,7864.4
574.985,7923.2
575.068,7965.7
575.151,8084.45
575.235,8109.25
575.318,7935.5
575.401,7926.4
575.485,7956.7
575.568,7967.55
575.651,7979.2
575.735,8056.85
575.818,7975.9
575.901,7994.15
575.985,7957.7
576.068,7902.75
576.151,7967.35
576.235,7987.45
576.318,8075.8
576.401,8094.15
576.484,8108.1
576.568,8103.05
576.651,8126.0
576.734,8117.7
576.818,8075.9
576.901,8121.15
576.984,8067.95
577.068,8066.6
577.151,8065.85
577.234,8056.4
577.318,8024.45
577.401,8032.0
577.484,7993.9
577.567,7879.6
577.651,8030.25
577.734,8033.2
577.817,7936.05
577.901,7934.0
577.984,7929.6
578.067,8004.25
578.15,7954.5
578.234,7925.45
578.317,7950.55
578.4,8005.4
578.484,8000.3
578.567,8056.9
578.65,8066.25
578.733,8036.8
578.817,8107.05
578.9,8162.25
578.983,8120.25
579.066,8048.3
579.15,8111.05
579.233,8134.95
579.316,8119.75
579.399,8192.45
579.483,8167.35
579.566,8322.15
579.649,8263.15
579.732,8231.0
579.816,8335.25
579.899,8265.45
579.982,8271.9
580.065,8309.4
580.149,8369.6
580.232,8505.6
580.315,8499.65
580.398,8497.4
580.482,8414.65
580.565,8494.25
580.648,8658.75
580.731,8654.85
580.815,8549.1
580.898,8472.95
580.981,8499.05
581.064,8650.6
581.147,8730.35
581.231,8782.9
581.314,8747.8
581.397,8841.85
581.48,8906.45
581.563,8880.45
581.647,9104.7
581.73,9565.6
581.813,9910.05
581.896,10495.9
581.979,11183.5
582.063,11741.5
582.146,11869.7
582.229,11379.9
582.312,10581.7
582.395,9628.35
582.479,8951.95
582.562,8651.45
582.645,8512.7
582.728,8478.05
582.811,8359.3
582.895,8282.85
582.978,8246.8
583.061,8220.4
583.144,8263.15
583.227,8248.35
583.31,8200.8
583.394,8224.0
583.477,8267.15
583.56,8338.4
583.643,8177.95
583.726,8182.95
583.809,8212.7
583.893,8220.6
583.976,8217.5
584.059,8113.9
584.142,8065.15
584.225,8119.0
584.308,8268.5
584.391,8245.95
584.475,8210.05
584.558,8254.1
584.641,8210.6
584.724,8229.7
584.807,8281.0
584.89,8292.2
584.973,8353.5
585.057,8313.5
585.14,8341.95
585.223,8441.3
585.306,8582.35
585.389,8747.3
585.472,8868.2
585.555,9149.1
585.638,9463.0
585.722,9728.1
585.805,9929.25
585.888,10232.2
585.971,10429.0
586.054,10413.2
586.137,10154.7
586.22,9823.9
586.303,9719.1
586.386,9648.95
586.47,9449.5
586.553,9256.1
586.636,8849.5
586.719,8611.8
586.802,8488.8
586.885,8444.15
586.968,8501.7
587.051,8458.25
587.134,8314.7
587.217,8293.95
587.3,8365.65
587.384,8416.55
587.467,8403.3
587.55,8299.15
587.633,8293.5
587.716,8358.55
587.799,8288.85
587.882,8267.3
587.965,8355.85
588.048,8357.0
588.131,8381.35
588.214,8413.75
588.297,8384.8
588.38,8429.25
588.463,8368.55
588.546,8309.15
588.63,8348.8
588.713,8365.35
588.796,8388.4
588.879,8331.85
588.962,8297.45
589.045,8299.8
589.128,8421.65
589.211,8366.6
589.294,8328.5
589.377,8270.35
589.46,8324.7
589.543,8336.3
589.626,8385.45
589.709,8377.25
589.792,8368.45
589.875,8316.45
589.958,8251.0
590.041,8346.65
590.124,8332.85
590.207,8293.6
590.29,8316.55
590.373,8332.75
590.456,8398.05
590.539,8497.6
590.622,8377.7
590.705,8308.8
590.788,8352.35
590.871,8358.5
590.954,8340.0
591.037,8367.2
591.12,8455.9
591.203,8495.95
591.286,8521.0
591.369,8441.55
591.452,8439.35
591.535,8448.35
591.618,8435.9
591.701,8446.0
591.784,8421.45
591.867,8465.85
591.95,8391.0
592.033,8331.3
592.116,8475.85
592.199,8508.3
592.282,8520.6
592.365,8676.55
592.448,8683.4
592.531,8417.55
592.614,8369.45
592.697,8405.8
592.78,8592.85
592.863,8581.35
592.946,8503.6
593.029,8468.35
593.112,8530.55
593.195,8518.05
593.278,8416.85
593.361,8479.9
593.443,8537.8
593.526,8470.85
593.609,8565.5
593.692,8600.7
593.775,8533.65
593.858,8518.7
593.941,8462.8
594.024,8407.85
594.107,8466.9
594.19,8519.45
594.273,8494.8
594.356,8459.6
594.439,8508.5
594.522,8469.45
594.604,8606.55
594.687,8571.3
594.77,8579.5
594.853,8523.65
594.936,8555.65
595.019,8574.8
595.102,8539.05
595.185,8595.45
595.268,8686.15
595.351,8653.3
595.434,8640.35
595.516,8654.1
595.599,8671.25
595.682,8771.2
595.765,8592.95
595.848,8626.15
595.931,8675.85
596.014,8666.9
596.097,8641.75
596.18,8706.0
596.262,8701.0
596.345,8695.4
596.428,8593.6
596.511,8506.1
596.594,8545.6
596.677,8767.05
596.76,8804.0
596.843,8701.4
596.925,8698.5
597.008,8667.75
597.091,8615.75
597.174,8735.8
597.257,8760.05
597.34,8731.65
597.423,8568.85
597.505,8620.45
597.588,8639.15
597.671,8761.25
597.754,8821.15
597.837,8787.2
597.92,8834.4
598.002,8685.4
598.085,8606.85
598.168,8594.15
598.251,8572.2
598.334,8584.9
598.417,8659.5
598.499,8801.2
598.582,8756.05
598.665,8767.2
598.748,8676.45
598.831,8703.7
598.914,8795.0
598.996,8798.05
599.079,8781.3
599.162,8859.95
599.245,8856.55
599.328,8763.95
599.41,8808.45
599.493,8855.1
599.576,8740.8
599.659,8856.4
599.742,8810.45
599.824,8651.45
599.907,8662.05
599.99,8792.35
600.073,8702.25
600.156,8606.95
600.238,8656.65
600.321,8799.9
600.404,8843.1
600.487,8836.95
600.57,8798.05
600.652,8708.25
600.735,8646.9
600.818,8659.15
600.901,8859.15
600.983,8978.0
601.066,8870.9
601.149,8794.9
601.232,8803.55
601.314,8847.25
601.397,8860.35
601.48,8902.75
601.563,8899.95
601.645,8867.1
601.728,8803.3
601.811,8710.55
601.894,8620.4
601.976,8674.95
602.059,8809.4
602.142,8788.45
602.225,8856.85
602.307,8771.8
602.39,8719.0
602.473,8792.85
602.556,8798.75
602.638,8739.65
602.721,8788.55
602.804,8906.35
602.887,8917.05
602.969,8873.95
603.052,8904.7
603.135,8845.55
603.217,8696.15
603.3,8754.65
603.383,8779.85
603.466,8926.4
603.548,8827.05
603.631,8836.4
603.714,8891.55
603.796,8901.3
603.879,8898.6
603.962,8867.6
604.045,8768.4
604.127,8671.0
604.21,8777.5
604.293,8742.55
604.375,8729.25
604.458,8809.1
604.541,8860.8
604.623,8919.35
604.706,8838.65
604.789,8842.8
604.871,8943.15
604.954,8916.6
605.037,8790.75
605.119,8713.85
605.202,8800.3
605.285,8676.15
605.367,8637.95
605.45,8616.55
605.533,8694.65
605.615,8814.85
605.698,8897.7
605.781,8807.55
605.863,8790.75
605.946,8779.45
606.029,8820.45
606.111,8760.85
606.194,8798.9
606.277,8855.05
606.359,8881.0
606.442,8841.6
606.524,8949.5
606.607,9005.05
606.69,8789.5
606.772,8746.3
606.855,8759.35
606.938,8742.4
607.02,8799.6
607.103,8834.4
607.185,8783.6
607.268,8888.1
607.351,8887.9
607.433,8801.1
607.516,8713.8
607.599,8842.75
607.681,9030.6
607.764,9012.25
607.846,8837.95
607.929,8780.7
608.012,8733.5
608.094,8755.65
608.177,8823.85
608.259,8843.55
608.342,8819.8
608.425,8788.25
608.507,8892.05
608.59,8814.55
608.672,8798.75
608.755,8842.1
608.837,8694.4
608.92,8704.5
609.003,8679.45
609.085,8796.85
609.168,8826.7
609.25,8759.15
609.333,8710.7
609.415,8719.45
609.498,8810.65
609.581,8881.8
609.663,8887.85
609.746,8862.4
609.828,8855.55
609.911,8791.8
609.993,8720.35
610.076,8686.2
610.158,8791.5
610.241,8811.85
610.324,8804.9
610.406,8800.45
610.489,8908.2
610.571,8958.55
610.654,8863.95
610.736,8676.7
610.819,8821.55
610.901,9040.9
610.984,8971.35
611.066,8696.35
611.149,8638.75
611.231,8723.9
611.314,8845.5
611.396,8816.25
611.479,8860.3
611.561,8880.15
611.644,8784.25
611.727,8725.05
611.809,8735.6
611.892,8716.15
611.974,8778.35
612.057,8828.3
612.139,8788.35
612.222,8717.45
612.304,8740.6
612.386,8775.95
612.469,8737.2
612.551,8699.65
612.634,8856.4
612.716,8853.3
612.799,8782.1
612.881,8700.3
612.964,8655.1
613.046,8767.25
613.129,8848.75
613.211,8804.25
613.294,8756.25
613.376,8716.15
613.459,8777.3
613.541,8745.25
613.624,8665.15
613.706,8777.75
613.789,8809.55
613.871,8800.65
613.953,8865.75
614.036,8901.1
614.118,8757.15
614.201,8716.2
614.283,8696.9
614.366,8692.95
614.448,8806.45
614.531,8798.7
614.613,8789.8
614.695,8765.2
614.778,8783.6
614.86,8875.95
614.943,8888.65
615.025,8872.6
615.108,8795.0
615.19,8711.55
615.272,8662.0
615.355,8803.2
615.437,8876.95
615.52,8840.1
615.602,8809.45
615.684,8746.5
615.767,8642.65
615.849,8650.45
615.932,8603.0
616.014,8731.5
616.097,8779.4
616.179,8773.9
616.261,8852.0
616.344,8862.85
616.426,8876.65
616.508,8848.6
616.591,8696.75
616.673,8592.9
616.756,8724.85
616.838,8781.7
616.92,8717.25
617.003,8852.0
617.085,8916.5
617.168,8769.9
617.25,8690.65
617.332,8687.4
617.415,8667.95
617.497,8919.7
617.579,8802.95
617.662,8624.9
617.744,8811.7
617.826,8940.05
617.909,8841.05
617.991,8644.4
618.073,8581.1
618.156,8706.4
618.238,8971.3
618.32,8901.9
618.403,8742.15
618.485,8747.7
618.567,8835.15
618.65,8814.1
618.732,8792.8
618.814,8899.8
618.897,8887.3
618.979,8835.8
619.061,8746.15
619.144,8763.45
619.226,8858.8
619.308,8814.05
619.391,8799.55
619.473,8771.25
619.555,8683.2
619.638,8683.85
619.72,8761.85
619.802,8753.75
619.885,8685.5
619.967,8672.0
620.049,8930.95
620.131,8864.3
620.214,8856.85
620.296,8887.95
620.378,8765.7
620.461,8742.5
620.543,8715.25
620.625,8769.8
620.707,8742.05
620.79,8727.3
620.872,8708.35
620.954,8640.65
621.037,8704.3
621.119,8777.4
621.201,8827.6
621.283,8901.7
621.366,8873.9
621.448,8735.6
621.53,8659.25
621.612,8566.5
621.695,8658.2
621.777,8789.65
621.859,8851.7
621.941,8718.6
622.024,8701.8
622.106,8777.9
622.188,8719.45
622.27,8760.6
622.353,8632.3
622.435,8579.05
622.517,8668.2
622.599,8709.5
622.682,8876.75
622.764,8944.5
622.846,8872.55
622.928,8740.15
623.01,8817.7
623.093,8849.35
623.175,8841.6
623.257,8793.6
623.339,8744.65
623.422,8679.35
623.504,8581.7
623.586,8696.7
623.668,8801.85
623.75,8678.5
623.833,8618.95
623.915,8742.8
623.997,8854.85
624.079,8826.55
624.161,8803.45
624.244,8741.25
624.326,8748.4
624.408,8801.45
624.49,8916.25
624.572,8949.8
624.654,8872.6
624.737,8830.55
624.819,8763.25
624.901,8798.15
624.983,8771.25
625.065,8837.95
625.147,8913.35
625.23,8790.5
625.312,8739.4
625.394,8800.55
625.476,8831.65
625.558,8664.9
625.64,8650.05
625.723,8643.0
625.805,8743.45
625.887,8808.8
625.969,8813.0
626.051,8760.65
626.133,8720.2
626.215,8711.6
626.298,8729.35
626.38,8731.95
626.462,8706.9
626.544,8761.15
626.626,8745.4
626.708,8653.65
626.79,8717.2
626.872,8593.15
626.955,8773.3
627.037,8784.4
627.119,8674.05
627.201,8585.35
627.283,8694.55
627.365,8748.75
627.447,8820.95
627.529,8798.2
627.611,8901.6
627.693,8832.75
627.776,8720.4
627.858,8663.6
627.94,8662.9
628.022,8847.2
628.104,8900.95
628.186,8969.25
628.268,8852.4
628.35,8727.95
628.432,8774.65
628.514,8941.95
628.596,9072.4
628.678,8977.15
628.761,8846.9
628.843,8750.1
628.925,8884.6
629.007,9045.5
629.089,9060.0
629.171,8894.8
629.253,8892.65
629.335,8959.95
629.417,8976.45
629.499,9035.25
629.581,9004.45
629.663,8829.3
629.745,8814.6
629.827,8950.8
629.909,8872.5
629.991,8843.7
630.073,8826.4
630.155,8903.45
630.237,9019.85
630.319,9030.5
630.401,8925.55
630.483,8840.35
630.565,8685.55
630.647,8744.85
630.73,8950.25
630.812,9089.75
630.894,9280.9
630.976,9257.5
631.058,9118.2
631.14,9067.9
631.222,9171.25
631.304,9340.5
631.386,9526.5
631.468,9601.6
631.55,9529.1
631.632,9300.85
631.714,9473.9
631.796,9555.45
631.877,9571.05
631.959,9515.65
632.041,9499.0
632.123,9522.55
632.205,9470.35
632.287,9444.2
632.369,9317.55
632.451,9332.45
632.533,9232.35
632.615,9244.15
632.697,9206.05
632.779,9154.25
632.861,9316.7
632.943,9269.85
633.025,9281.2
633.107,9293.75
633.189,9264.25
633.271,9258.9
633.353,9211.25
633.435,9160.55
633.517,9114.8
633.599,9097.5
633.681,9154.2
633.763,9266.8
633.844,9186.9
633.926,9101.0
634.008,8944.55
634.09,8845.8
634.172,8933.0
634.254,9082.4
634.336,8990.4
634.418,8922.35
634.5,8860.9
634.582,8963.65
634.664,8992.45
634.746,8971.7
634.827,8992.3
634.909,9018.0
634.991,9064.65
635.073,8902.65
635.155,8938.75
635.237,8928.5
635.319,8995.25
635.401,8924.05
635.483,8950.25
635.564,8955.7
635.646,8979.0
635.728,9059.15
635.81,9229.1
635.892,9252.85
635.974,9219.95
636.056,9327.35
636.138,9388.55
636.219,9567.1
636.301,9803.6
