nm,Intensity
528.626,1868.65
528.711,1868.5
528.795,1869.88
528.879,1869.05
528.963,1868.75
529.048,1868.35
529.132,1870.03
529.216,1868.78
529.3,1869.65
529.385,1869.35
529.469,1868.78
529.553,1869.75
529.637,1869.1
529.721,1868.82
529.806,1869.25
529.89,1868.72
529.974,1868.85
530.058,1869.3
530.143,1868.57
530.227,1869.68
530.311,1868.97
530.395,1869.65
530.48,1870.57
530.564,1869.82
530.648,1870.43
530.732,1868.72
530.816,1869.75
530.901,1869.55
530.985,1869.97
531.069,1870.63
531.153,1869.78
531.237,1871.47
531.322,1872.9
531.406,1874.32
531.49,1875.05
531.574,1879.38
531.658,1895.88
531.743,1959.75
531.827,2203.38
531.911,2672.32
531.995,3360.18
532.079,3559.15
532.164,3190.18
532.248,2638.4
532.332,2108.5
532.416,1899.15
532.5,1873.0
532.585,1870.4
532.669,1870.97
532.753,1869.43
532.837,1869.47
532.921,1870.0
533.006,1870.95
533.09,1869.63
533.174,1871.03
533.258,1870.35
533.342,1871.35
533.426,1873.47
533.511,1879.82
533.595,1900.45
533.679,1937.63
533.763,1999.85
533.847,2069.55
533.931,2127.3
534.016,2170.27
534.1,2200.63
534.184,2210.8
534.268,2210.27
534.352,2216.02
534.436,2213.23
534.521,2217.38
534.605,2221.0
534.689,2224.3
534.773,2233.77
534.857,2231.68
534.941,2231.9
535.025,2233.45
535.11,2241.43
535.194,2248.6
535.278,2242.55
535.362,2251.0
535.446,2238.52
535.53,2238.5
535.614,2239.23
535.699,2236.93
535.783,2227.45
535.867,2226.9
535.951,2229.88
536.035,2221.02
536.119,2219.7
536.203,2224.55
536.287,2226.18
536.372,2225.48
536.456,2230.85
536.54,2226.45
536.624,2223.23
536.708,2226.3
536.792,2226.95
536.876,2235.35
536.96,2234.3
537.044,2234.8
537.129,2232.15
537.213,2235.5
537.297,2237.7
537.381,2238.73
537.465,2250.45
537.549,2254.4
537.633,2255.18
537.717,2254.4
537.801,2251.15
537.885,2251.93
537.97,2252.98
538.054,2243.43
538.138,2239.38
538.222,2237.13
538.306,2248.55
538.39,2247.75
538.474,2244.35
538.558,2252.75
538.642,2251.2
538.726,2259.4
538.81,2257.05
538.894,2260.65
538.979,2266.1
539.063,2264.77
539.147,2260.32
539.231,2269.15
539.315,2273.77
539.399,2270.6
539.483,2274.4
539.567,2271.38
539.651,2275.57
539.735,2274.55
539.819,2281.13
539.903,2276.52
539.987,2277.55
540.071,2279.1
540.155,2287.1
540.239,2290.85
540.324,2294.73
540.408,2299.23
540.492,2293.85
540.576,2301.05
540.66,2314.52
540.744,2316.95
540.828,2321.0
540.912,2327.98
540.996,2332.48
541.08,2341.3
541.164,2346.57
541.248,2347.27
541.332,2338.9
541.416,2340.98
541.5,2340.8
541.584,2340.02
541.668,2345.35
541.752,2343.1
541.836,2341.6
541.92,2352.8
542.004,2350.02
542.088,2353.0
542.172,2359.2
542.256,2368.32
542.34,2364.43
542.424,2360.3
542.508,2365.45
542.592,2366.75
542.676,2366.52
542.76,2364.23
542.844,2377.63
542.928,2377.65
543.012,2375.85
543.096,2377.45
543.18,2370.23
543.264,2355.98
543.348,2350.18
543.432,2343.07
543.516,2344.2
543.6,2336.65
543.684,2336.4
543.768,2358.95
543.852,2359.2
543.936,2357.4
544.02,2358.2
544.104,2364.7
544.188,2376.85
544.272,2365.23
544.356,2359.85
544.44,2364.75
544.524,2360.9
544.608,2368.38
544.692,2376.4
544.776,2378.77
544.86,2383.07
544.944,2385.57
545.028,2380.38
545.112,2387.6
545.196,2391.23
545.28,2385.0
545.364,2383.57
545.448,2396.52
545.532,2382.98
545.616,2372.68
545.7,2371.18
545.784,2360.8
545.867,2364.48
545.951,2359.75
546.035,2363.32
546.119,2357.27
546.203,2367.5
546.287,2359.57
546.371,2354.75
546.455,2361.4
546.539,2343.4
546.623,2352.13
546.707,2354.3
546.791,2348.55
546.875,2347.85
546.959,2346.07
547.043,2351.23
547.127,2360.32
547.21,2364.9
547.294,2359.35
547.378,2361.73
547.462,2357.4
547.546,2364.55
547.63,2350.55
547.714,2335.73
547.798,2336.27
547.882,2333.18
547.966,2332.48
548.05,2333.6
548.134,2331.52
548.217,2332.05
548.301,2336.52
548.385,2334.35
548.469,2347.02
548.553,2345.18
548.637,2345.93
548.721,2339.02
548.805,2344.82
548.889,2350.55
548.972,2354.48
549.056,2356.5
549.14,2355.07
549.224,2348.88
549.308,2348.95
549.392,2351.4
549.476,2354.63
549.56,2343.27
549.644,2334.75
549.727,2323.23
549.811,2320.85
549.895,2324.43
549.979,2332.3
550.063,2339.65
550.147,2336.52
550.231,2335.95
550.315,2339.73
550.398,2334.63
550.482,2332.82
550.566,2323.85
550.65,2318.48
550.734,2322.43
550.818,2324.95
550.902,2326.88
550.985,2326.52
551.069,2318.15
551.153,2316.3
551.237,2317.65
551.321,2324.35
551.405,2319.38
551.488,2323.4
551.572,2329.32
551.656,2322.07
551.74,2331.82
551.824,2332.75
551.908,2319.98
551.991,2322.23
552.075,2323.18
552.159,2324.8
552.243,2309.4
552.327,2313.63
552.411,2315.0
552.494,2311.2
552.578,2304.75
552.662,2306.5
552.746,2307.13
552.83,2305.6
552.914,2312.2
552.997,2305.65
553.081,2310.0
553.165,2307.4
553.249,2303.65
553.333,2308.48
553.416,2303.63
553.5,2316.65
553.584,2311.7
553.668,2299.2
553.752,2293.43
553.835,2299.48
553.919,2302.07
554.003,2303.55
554.087,2308.43
554.171,2305.43
554.254,2298.55
554.338,2304.4
554.422,2310.75
554.506,2308.48
554.589,2299.43
554.673,2304.43
554.757,2309.57
554.841,2304.6
554.925,2310.23
555.008,2307.88
555.092,2311.27
555.176,2300.32
555.26,2296.3
555.343,2301.32
555.427,2310.88
555.511,2305.25
555.595,2305.55
555.679,2302.4
555.762,2303.18
555.846,2298.43
555.93,2302.55
556.014,2303.4
556.097,2306.7
556.181,2298.65
556.265,2303.85
556.349,2310.95
556.432,2300.77
556.516,2297.65
556.6,2302.77
556.684,2303.93
556.767,2296.75
556.851,2308.6
556.935,2303.6
557.018,2296.65
557.102,2306.52
557.186,2310.38
557.27,2304.3
557.353,2308.18
557.437,2304.35
557.521,2303.2
557.605,2299.88
557.688,2301.65
557.772,2306.82
557.856,2313.75
557.939,2307.3
558.023,2314.13
558.107,2321.48
558.191,2321.45
558.274,2326.93
558.358,2330.18
558.442,2330.5
558.525,2336.6
558.609,2345.0
558.693,2351.63
558.776,2355.45
558.86,2367.23
558.944,2354.18
559.028,2348.0
559.111,2345.55
559.195,2340.38
559.279,2342.77
559.362,2331.9
559.446,2336.05
559.53,2333.25
559.613,2331.3
559.697,2336.95
559.781,2325.13
559.864,2321.02
559.948,2317.73
560.032,2317.1
560.115,2312.1
560.199,2310.98
560.283,2312.15
560.366,2319.73
560.45,2316.23
560.534,2317.73
560.617,2322.48
560.701,2327.23
560.785,2330.18
560.868,2330.0
560.952,2329.8
561.036,2334.5
561.119,2333.3
561.203,2331.02
561.287,2331.6
561.37,2332.8
561.454,2330.5
561.538,2332.98
561.621,2333.23
561.705,2342.0
561.789,2348.65
561.872,2352.82
561.956,2349.65
562.039,2355.38
562.123,2353.6
562.207,2345.73
562.29,2343.5
562.374,2347.8
562.458,2351.07
562.541,2343.18
562.625,2350.25
562.708,2352.35
562.792,2362.65
562.876,2370.9
562.959,2369.27
563.043,2383.35
563.127,2379.3
563.21,2369.35
563.294,2375.82
563.377,2379.57
563.461,2387.95
563.545,2394.63
563.628,2403.6
563.712,2409.8
563.795,2434.23
563.879,2470.98
563.963,2488.27
564.046,2486.23
564.13,2477.32
564.213,2455.48
564.297,2460.68
564.38,2452.63
564.464,2468.65
564.548,2475.73
564.631,2503.3
564.715,2538.7
564.798,2576.23
564.882,2629.9
564.966,2652.15
565.049,2675.32
565.133,2692.5
565.216,2668.8
565.3,2627.18
565.383,2590.82
565.467,2562.07
565.551,2543.0
565.634,2549.1
565.718,2549.02
565.801,2549.13
565.885,2572.48
565.968,2594.45
566.052,2610.48
566.135,2626.55
566.219,2619.57
566.302,2569.77
566.386,2526.3
566.47,2478.5
566.553,2452.68
566.637,2449.5
566.72,2457.4
566.804,2444.35
566.887,2437.77
566.971,2438.57
567.054,2431.9
567.138,2427.82
567.221,2437.57
567.305,2441.52
567.388,2430.93
567.472,2417.07
567.555,2401.15
567.639,2397.82
567.722,2393.15
567.806,2396.77
567.889,2386.3
567.973,2394.5
568.057,2399.55
568.14,2391.7
568.224,2400.1
568.307,2398.1
568.391,2403.7
568.474,2422.4
568.558,2446.52
568.641,2470.65
568.725,2481.6
568.808,2474.43
568.892,2453.4
568.975,2424.15
569.058,2405.82
569.142,2387.27
569.225,2380.98
569.309,2376.23
569.392,2372.52
569.476,2377.05
569.559,2382.7
569.643,2399.48
569.726,2401.27
569.81,2398.0
569.893,2389.25
569.977,2405.05
570.06,2415.18
570.144,2427.05
570.227,2436.5
570.311,2434.3
570.394,2425.73
570.477,2429.7
570.561,2419.95
570.644,2414.18
570.728,2409.1
570.811,2406.23
570.895,2410.15
570.978,2397.95
571.062,2401.13
571.145,2403.6
571.229,2426.6
571.312,2446.18
571.395,2485.6
571.479,2525.43
571.562,2525.3
571.646,2519.05
571.729,2468.13
571.813,2445.27
571.896,2421.93
571.979,2424.1
572.063,2425.9
572.146,2422.9
572.23,2435.77
572.313,2444.77
572.397,2452.5
572.48,2464.82
572.563,2473.93
572.647,2496.8
572.73,2521.15
572.814,2555.0
572.897,2566.75
572.98,2580.52
573.064,2582.5
573.147,2592.7
573.231,2599.38
573.314,2590.48
573.397,2572.07
573.481,2543.48
573.564,2529.1
573.648,2514.73
573.731,2515.13
573.814,2521.85
573.898,2513.15
573.981,2520.77
574.064,2527.43
574.148,2551.73
574.231,2598.63
574.315,2658.2
574.398,2736.5
574.481,2808.35
574.565,2890.5
574.648,2973.55
574.731,3006.18
574.815,2939.25
574.898,2835.55
574.982,2718.5
575.065,2612.02
575.148,2562.15
575.232,2534.88
575.315,2545.52
575.398,2564.7
575.482,2584.9
575.565,2593.82
575.648,2587.38
575.732,2583.63
575.815,2585.18
575.898,2611.88
575.982,2633.82
576.065,2649.57
576.148,2651.63
576.232,2623.35
576.315,2590.05
576.398,2558.05
576.482,2549.95
576.565,2546.15
576.648,2525.15
576.732,2511.13
576.815,2510.3
576.898,2510.48
576.982,2502.25
577.065,2488.48
577.148,2492.15
577.232,2477.57
577.315,2463.9
577.398,2453.73
577.481,2440.63
577.565,2431.38
577.648,2436.95
577.731,2431.85
577.815,2435.0
577.898,2419.18
577.981,2410.55
578.065,2405.07
578.148,2394.98
578.231,2403.82
578.314,2408.63
578.398,2411.48
578.481,2404.15
578.564,2404.4
578.648,2403.13
578.731,2404.13
578.814,2403.48
578.897,2392.43
578.981,2408.05
579.064,2412.57
579.147,2403.27
579.23,2403.9
579.314,2406.85
579.397,2405.15
579.48,2408.4
579.563,2418.55
579.647,2404.0
579.73,2396.63
579.813,2408.07
579.896,2414.35
579.98,2416.48
580.063,2417.52
580.146,2412.25
580.229,2419.18
580.313,2423.9
580.396,2423.2
580.479,2425.02
580.562,2426.0
580.646,2422.4
580.729,2432.63
580.812,2436.4
580.895,2428.4
580.979,2445.07
581.062,2451.88
581.145,2464.02
581.228,2478.32
581.311,2483.85
581.395,2494.1
581.478,2491.52
581.561,2505.48
581.644,2501.32
581.728,2501.48
581.811,2496.73
581.894,2491.18
581.977,2494.63
582.06,2481.73
582.144,2478.98
582.227,2476.15
582.31,2473.4
582.393,2478.6
582.476,2461.3
582.56,2460.5
582.643,2458.85
582.726,2460.43
582.809,2448.73
582.892,2448.6
582.975,2438.82
583.059,2450.07
583.142,2447.93
583.225,2454.43
583.308,2463.3
583.391,2450.65
583.475,2450.6
583.558,2443.75
583.641,2446.6
583.724,2448.57
583.807,2448.0
583.89,2459.93
583.973,2456.68
584.057,2457.75
584.14,2456.68
584.223,2456.43
584.306,2461.3
584.389,2456.4
584.472,2457.95
584.556,2450.18
584.639,2457.15
584.722,2462.85
584.805,2463.93
584.888,2465.13
584.971,2459.07
585.054,2458.2
585.138,2467.5
585.221,2467.63
585.304,2468.63
585.387,2469.15
585.47,2480.82
585.553,2467.8
585.636,2475.52
585.719,2470.18
585.802,2463.18
585.886,2465.5
585.969,2484.85
586.052,2472.32
586.135,2465.77
586.218,2472.65
586.301,2477.13
586.384,2475.02
586.467,2468.23
586.55,2470.95
586.634,2475.75
586.717,2471.13
586.8,2481.65
586.883,2493.27
586.966,2488.43
587.049,2494.8
587.132,2492.02
587.215,2499.9
587.298,2499.27
587.381,2485.5
587.464,2496.43
587.548,2494.77
587.631,2488.8
587.714,2490.88
587.797,2495.9
587.88,2489.75
587.963,2512.7
588.046,2509.13
588.129,2518.05
588.212,2517.52
588.295,2500.48
588.378,2501.05
588.461,2512.75
588.544,2514.93
588.627,2520.5
588.71,2514.43
588.793,2519.18
588.876,2505.52
588.96,2502.57
589.043,2502.82
589.126,2507.25
589.209,2517.88
589.292,2515.85
589.375,2526.68
589.458,2518.8
589.541,2515.7
589.624,2518.1
589.707,2518.2
589.79,2512.4
589.873,2525.57
589.956,2528.93
590.039,2526.32
590.122,2529.85
590.205,2524.9
590.288,2525.9
590.371,2539.68
590.454,2541.02
590.537,2537.93
590.62,2558.25
590.703,2553.3
590.786,2552.3
590.869,2544.02
590.952,2540.45
591.035,2562.85
591.118,2566.4
591.201,2560.85
591.284,2563.93
591.367,2562.27
591.45,2563.63
591.533,2552.95
591.616,2560.27
591.699,2565.57
591.782,2573.82
591.865,2573.3
591.948,2572.07
592.031,2578.45
592.114,2579.5
592.197,2573.77
592.28,2572.15
592.363,2580.8
592.446,2586.32
592.529,2584.68
592.611,2589.68
592.694,2587.07
592.777,2594.7
592.86,2596.55
592.943,2597.02
593.026,2591.02
593.109,2603.07
593.192,2615.55
593.275,2599.57
593.358,2583.13
593.441,2584.2
593.524,2596.32
593.607,2592.0
593.69,2598.0
593.773,2596.5
593.856,2614.27
593.939,2623.98
594.021,2618.43
594.104,2614.32
594.187,2625.35
594.27,2613.2
594.353,2619.18
594.436,2624.65
594.519,2623.02
594.602,2618.32
594.685,2625.38
594.768,2644.35
594.851,2642.07
594.933,2655.98
595.016,2638.45
595.099,2639.4
595.182,2653.35
595.265,2665.05
595.348,2659.48
595.431,2652.05
595.514,2655.13
595.597,2671.32
595.68,2681.35
595.762,2685.6
595.845,2692.8
595.928,2687.13
596.011,2688.7
596.094,2692.95
596.177,2697.0
596.26,2700.73
596.342,2694.2
596.425,2694.52
596.508,2701.55
596.591,2696.73
596.674,2710.2
596.757,2713.27
596.84,2705.55
596.923,2701.6
597.005,2713.15
597.088,2725.4
597.171,2721.73
597.254,2722.82
597.337,2722.57
597.42,2747.07
597.502,2735.18
597.585,2738.82
597.668,2743.05
597.751,2742.75
597.834,2744.75
597.917,2744.9
597.999,2757.3
598.082,2759.93
598.165,2759.75
598.248,2760.93
598.331,2765.15
598.414,2771.68
598.496,2764.25
598.579,2766.7
598.662,2774.75
598.745,2784.6
598.828,2772.07
598.91,2776.55
598.993,2786.5
599.076,2793.6
599.159,2807.1
599.242,2796.3
599.324,2798.9
599.407,2815.55
599.49,2815.32
599.573,2819.13
599.656,2815.9
599.738,2828.45
599.821,2829.68
599.904,2832.23
599.987,2828.2
600.069,2829.57
600.152,2835.95
600.235,2839.4
600.318,2848.63
600.401,2863.7
600.483,2872.98
600.566,2866.8
600.649,2855.65
600.732,2848.85
600.814,2872.1
600.897,2869.25
600.98,2860.93
601.063,2873.75
601.145,2868.57
601.228,2879.5
601.311,2879.85
601.394,2879.77
601.476,2872.3
601.559,2880.48
601.642,2902.35
601.725,2910.6
601.807,2905.5
601.89,2917.55
601.973,2923.48
602.055,2903.95
602.138,2914.8
602.221,2926.43
602.304,2924.07
602.386,2928.4
602.469,2933.8
602.552,2930.0
602.635,2924.95
602.717,2937.7
602.8,2946.35
602.883,2941.38
602.965,2947.05
603.048,2946.43
603.131,2939.15
603.213,2952.57
603.296,2969.8
603.379,2977.4
603.462,2963.18
603.544,2962.98
603.627,2952.63
603.71,2968.77
603.792,2970.18
603.875,2974.2
603.958,2979.9
604.04,2989.55
604.123,2984.15
604.206,2990.3
604.288,2983.38
604.371,2996.3
604.454,2996.35
604.536,2994.95
604.619,2996.18
604.702,3014.52
604.784,3036.95
604.867,3013.77
604.95,3007.05
605.032,3000.65
605.115,3014.48
605.198,3021.8
605.28,3025.45
605.363,3021.82
605.446,3049.8
605.528,3056.98
605.611,3037.88
605.693,3017.0
605.776,3035.18
605.859,3037.18
605.941,3040.65
606.024,3040.95
606.107,3044.0
606.189,3047.6
606.272,3061.55
606.354,3070.25
606.437,3082.85
606.52,3085.75
606.602,3077.9
606.685,3068.13
606.767,3097.07
606.85,3113.73
606.933,3082.38
607.015,3086.75
607.098,3079.7
607.181,3097.43
607.263,3117.43
607.346,3143.45
607.428,3117.82
607.511,3093.68
607.593,3111.3
607.676,3120.9
607.759,3094.43
607.841,3124.48
607.924,3117.32
608.006,3136.65
608.089,3145.77
608.172,3169.02
608.254,3141.45
608.337,3124.55
608.419,3114.3
608.502,3138.35
608.584,3157.05
608.667,3167.7
608.749,3156.9
608.832,3141.8
608.915,3140.75
608.997,3151.88
609.08,3156.88
609.162,3161.88
609.245,3168.2
609.327,3183.35
609.41,3191.68
609.492,3186.63
609.575,3169.7
609.657,3171.3
609.74,3166.43
609.823,3185.2
609.905,3211.68
609.988,3220.38
610.07,3209.73
610.153,3177.5
610.235,3191.63
610.318,3209.25
610.4,3211.1
610.483,3223.63
610.565,3229.02
610.648,3211.5
610.73,3234.35
610.813,3251.93
610.895,3253.77
610.978,3220.93
611.06,3216.93
611.143,3254.82
611.225,3256.25
611.308,3282.23
611.39,3226.88
611.473,3204.88
611.555,3223.23
611.638,3262.38
611.72,3262.95
611.803,3265.77
611.885,3255.75
611.968,3246.9
612.05,3250.65
612.133,3252.98
612.215,3246.9
612.297,3255.38
612.38,3284.75
612.462,3288.65
612.545,3279.13
612.627,3274.3
612.71,3261.3
612.792,3253.15
612.875,3263.6
612.957,3304.18
613.04,3287.77
613.122,3282.0
613.204,3261.23
613.287,3278.8
613.369,3280.25
613.452,3302.02
613.534,3289.48
613.617,3283.95
613.699,3288.23
613.781,3304.9
613.864,3332.5
613.946,3308.27
614.029,3302.18
614.111,3316.07
614.194,3341.05
614.276,3331.3
614.358,3357.8
614.441,3323.43
614.523,3316.63
614.606,3312.98
614.688,3310.65
614.77,3319.7
614.853,3347.13
614.935,3362.75
615.018,3354.77
615.1,3362.77
615.182,3367.27
615.265,3358.13
615.347,3366.2
615.43,3361.7
615.512,3367.8
615.594,3367.55
615.677,3358.32
615.759,3392.98
615.841,3396.7
615.924,3365.32
616.006,3385.63
616.089,3361.32
616.171,3371.88
616.253,3357.85
616.336,3338.48
616.418,3363.6
616.5,3391.88
616.583,3377.1
616.665,3370.0
616.747,3387.02
616.83,3376.98
616.912,3375.63
616.994,3382.05
617.077,3389.93
617.159,3415.88
617.242,3407.18
617.324,3407.82
617.406,3424.4
617.489,3402.6
617.571,3419.25
617.653,3428.05
617.735,3398.15
617.818,3395.07
617.9,3412.18
617.982,3405.23
618.065,3416.93
618.147,3436.98
618.229,3414.4
618.312,3405.5
618.394,3395.15
618.476,3398.73
618.559,3425.88
618.641,3399.95
618.723,3398.15
618.805,3389.88
618.888,3426.13
618.97,3432.45
619.052,3443.73
619.135,3456.9
619.217,3426.8
619.299,3428.88
619.381,3434.45
619.464,3428.35
619.546,3445.88
619.628,3434.15
619.711,3427.8
619.793,3430.93
619.875,3443.48
619.957,3458.63
620.04,3433.38
620.122,3445.98
620.204,3448.35
620.286,3452.07
620.369,3435.77
620.451,3425.2
620.533,3423.48
620.615,3437.27
620.698,3458.65
620.78,3450.45
620.862,3434.63
620.944,3443.15
621.027,3486.73
621.109,3486.77
621.191,3469.38
621.273,3442.18
621.356,3493.55
621.438,3486.82
621.52,3474.48
621.602,3471.5
621.684,3471.73
621.767,3475.48
621.849,3480.82
621.931,3464.65
622.013,3457.35
622.095,3498.55
622.178,3540.2
622.26,3526.98
622.342,3508.65
622.424,3516.23
622.506,3514.23
622.589,3539.5
622.671,3556.7
622.753,3535.5
622.835,3483.8
622.917,3490.18
623.0,3483.82
623.082,3511.18
623.164,3514.27
623.246,3529.4
623.328,3501.93
623.41,3492.98
623.493,3492.48
623.575,3507.3
623.657,3544.1
623.739,3523.7
623.821,3480.85
623.903,3500.98
623.986,3498.95
624.068,3519.02
624.15,3525.95
624.232,3521.18
624.314,3536.2
624.396,3559.18
624.478,3600.38
624.561,3581.1
624.643,3562.27
624.725,3550.3
624.807,3572.48
624.889,3540.38
624.971,3542.65
625.053,3562.57
625.136,3558.9
625.218,3526.0
625.3,3497.27
625.382,3526.32
625.464,3522.27
625.546,3542.52
625.628,3490.0
625.71,3517.9
625.792,3537.8
625.875,3565.35
625.957,3580.55
626.039,3590.8
626.121,3606.02
626.203,3615.4
626.285,3609.8
626.367,3578.02
626.449,3561.73
626.531,3584.2
626.613,3607.85
626.695,3697.65
626.778,3745.8
626.86,3802.27
626.942,3894.6
627.024,3943.3
627.106,3977.38
627.188,3996.52
627.27,3993.82
627.352,4010.18
627.434,4033.7
627.516,4007.8
627.598,3986.23
627.68,3922.7
627.762,3912.85
627.844,3948.07
627.926,3952.95
628.008,3965.0
628.09,3968.98
628.172,4014.75
628.255,4073.6
628.337,4095.6
628.419,4172.3
628.501,4280.8
628.583,4302.75
628.665,4232.0
628.747,4147.02
628.829,4124.33
628.911,4155.27
628.993,4144.95
629.075,4097.73
629.157,4054.7
629.239,4074.15
629.321,4087.85
629.403,4057.65
629.485,4031.1
629.567,4039.98
629.649,4007.82
629.731,3969.0
629.813,3947.65
629.895,3903.85
629.977,3872.18
630.059,3873.18
630.141,3854.65
630.223,3835.82
630.305,3826.0
630.387,3774.8
630.469,3778.35
630.551,3816.35
630.633,3855.1
630.715,3793.82
630.797,3745.52
630.878,3697.6
630.96,3707.5
631.042,3766.05
631.124,3738.85
631.206,3691.23
631.288,3674.8
631.37,3662.38
631.452,3649.02
631.534,3679.63
631.616,3683.57
631.698,3683.43
631.78,3640.45
631.862,3628.65
631.944,3610.85
632.026,3681.48
632.108,3689.13
632.19,3634.9
632.272,3607.38
632.353,3612.38
632.435,3588.8
632.517,3589.55
632.599,3538.45
632.681,3552.05
632.763,3538.18
632.845,3526.23
632.927,3523.75
633.009,3488.8
633.091,3499.65
633.173,3462.32
633.254,3454.1
633.336,3448.98
633.418,3482.45
633.5,3452.05
633.582,3424.9
633.664,3417.9
633.746,3402.93
633.828,3436.7
633.91,3465.65
633.991,3449.35
634.073,3430.18
634.155,3426.13
634.237,3445.65
634.319,3428.3
634.401,3418.77
634.483,3412.9
634.564,3376.1
634.646,3374.73
634.728,3391.75
634.81,3389.45
634.892,3399.45
634.974,3425.65
