cm-1,A
4000.0,-0.0023
3999.0,-0.0024
3998.0,-0.0024
3997.0,-0.0024
3996.0,-0.0024
3995.0,-0.0024
3994.0,-0.0024
3993.0,-0.0025
3992.0,-0.0025
3991.0,-0.0026
3990.0,-0.0026
3989.0,-0.0026
3988.0,-0.0025
3987.0,-0.0025
3986.0,-0.0024
3985.0,-0.0024
3984.0,-0.0024
3983.0,-0.0024
3982.0,-0.0025
3981.0,-0.0025
3980.0,-0.0024
3979.0,-0.0023
3978.0,-0.0023
3977.0,-0.0023
3976.0,-0.0023
3975.0,-0.0024
3974.0,-0.0024
3973.0,-0.0024
3972.0,-0.0024
3971.0,-0.0024
3970.0,-0.0025
3969.0,-0.0026
3968.0,-0.0026
3967.0,-0.0025
3966.0,-0.0024
3965.0,-0.0023
3964.0,-0.0022
3963.0,-0.0021
3962.0,-0.0022
3961.0,-0.0022
3960.0,-0.0023
3959.0,-0.0023
3958.0,-0.0024
3957.0,-0.0024
3956.0,-0.0024
3955.0,-0.0024
3954.0,-0.0024
3953.0,-0.0025
3952.0,-0.0025
3951.0,-0.0026
3950.0,-0.0026
3949.0,-0.0026
3948.0,-0.0027
3947.0,-0.0027
3946.0,-0.0027
3945.0,-0.0026
3944.0,-0.0026
3943.0,-0.0026
3942.0,-0.0026
3941.0,-0.0026
3940.0,-0.0026
3939.0,-0.0025
3938.0,-0.0025
3937.0,-0.0025
3936.0,-0.0026
3935.0,-0.0026
3934.0,-0.0026
3933.0,-0.0026
3932.0,-0.0025
3931.0,-0.0026
3930.0,-0.0026
3929.0,-0.0026
3928.0,-0.0027
3927.0,-0.0027
3926.0,-0.0028
3925.0,-0.0028
3924.0,-0.0028
3923.0,-0.0027
3922.0,-0.0026
3921.0,-0.0025
3920.0,-0.0025
3919.0,-0.0025
3918.0,-0.0025
3917.0,-0.0025
3916.0,-0.0025
3915.0,-0.0025
3914.0,-0.0025
3913.0,-0.0024
3912.0,-0.0023
3911.0,-0.0023
3910.0,-0.0023
3909.0,-0.0023
3908.0,-0.0025
3907.0,-0.0027
3906.0,-0.0028
3905.0,-0.0029
3904.0,-0.0029
3903.0,-0.0029
3902.0,-0.0028
3901.0,-0.0028
3900.0,-0.0027
3899.0,-0.0027
3898.0,-0.0026
3897.0,-0.0026
3896.0,-0.0025
3895.0,-0.0026
3894.0,-0.0026
3893.0,-0.0025
3892.0,-0.0025
3891.0,-0.0025
3890.0,-0.0026
3889.0,-0.0027
3888.0,-0.0027
3887.0,-0.0027
3886.0,-0.0027
3885.0,-0.0027
3884.0,-0.0028
3883.0,-0.0027
3882.0,-0.0027
3881.0,-0.0026
3880.0,-0.0026
3879.0,-0.0027
3878.0,-0.0027
3877.0,-0.0028
3876.0,-0.0028
3875.0,-0.0028
3874.0,-0.0028
3873.0,-0.0028
3872.0,-0.0028
3871.0,-0.0028
3870.0,-0.0027
3869.0,-0.0028
3868.0,-0.0028
3867.0,-0.0027
3866.0,-0.0027
3865.0,-0.0027
3864.0,-0.0027
3863.0,-0.0027
3862.0,-0.0027
3861.0,-0.0027
3860.0,-0.0027
3859.0,-0.0027
3858.0,-0.0028
3857.0,-0.0028
3856.0,-0.0029
3855.0,-0.0027
3854.0,-0.0026
3853.0,-0.0026
3852.0,-0.0028
3851.0,-0.0029
3850.0,-0.0027
3849.0,-0.0026
3848.0,-0.0025
3847.0,-0.0025
3846.0,-0.0025
3845.0,-0.0025
3844.0,-0.0026
3843.0,-0.0027
3842.0,-0.0027
3841.0,-0.0029
3840.0,-0.003
3839.0,-0.0031
3838.0,-0.0031
3837.0,-0.0031
3836.0,-0.003
3835.0,-0.0028
3834.0,-0.0027
3833.0,-0.0025
3832.0,-0.0024
3831.0,-0.0024
3830.0,-0.0024
3829.0,-0.0024
3828.0,-0.0025
3827.0,-0.0025
3826.0,-0.0026
3825.0,-0.0027
3824.0,-0.0027
3823.0,-0.0026
3822.0,-0.0025
3821.0,-0.0026
3820.0,-0.0027
3819.0,-0.0028
3818.0,-0.0027
3817.0,-0.0026
3816.0,-0.0025
3815.0,-0.0026
3814.0,-0.0027
3813.0,-0.0027
3812.0,-0.0027
3811.0,-0.0027
3810.0,-0.0027
3809.0,-0.0027
3808.0,-0.0027
3807.0,-0.0026
3806.0,-0.0027
3805.0,-0.0028
3804.0,-0.0028
3803.0,-0.0027
3802.0,-0.0026
3801.0,-0.0027
3800.0,-0.0028
3799.0,-0.0028
3798.0,-0.0027
3797.0,-0.0026
3796.0,-0.0025
3795.0,-0.0025
3794.0,-0.0025
3793.0,-0.0024
3792.0,-0.0024
3791.0,-0.0024
3790.0,-0.0024
3789.0,-0.0024
3788.0,-0.0025
3787.0,-0.0025
3786.0,-0.0025
3785.0,-0.0025
3784.0,-0.0025
3783.0,-0.0024
3782.0,-0.0024
3781.0,-0.0023
3780.0,-0.0023
3779.0,-0.0022
3778.0,-0.0022
3777.0,-0.0022
3776.0,-0.0022
3775.0,-0.0023
3774.0,-0.0023
3773.0,-0.0025
3772.0,-0.0025
3771.0,-0.0025
3770.0,-0.0025
3769.0,-0.0025
3768.0,-0.0024
3767.0,-0.0024
3766.0,-0.0024
3765.0,-0.0024
3764.0,-0.0025
3763.0,-0.0026
3762.0,-0.0025
3761.0,-0.0024
3760.0,-0.0022
3759.0,-0.0022
3758.0,-0.0023
3757.0,-0.0025
3756.0,-0.0027
3755.0,-0.0029
3754.0,-0.0031
3753.0,-0.0032
3752.0,-0.0031
3751.0,-0.0031
3750.0,-0.0031
3749.0,-0.0032
3748.0,-0.0032
3747.0,-0.0032
3746.0,-0.0031
3745.0,-0.0031
3744.0,-0.0032
3743.0,-0.0034
3742.0,-0.0035
3741.0,-0.0035
3740.0,-0.0036
3739.0,-0.0037
3738.0,-0.0039
3737.0,-0.004
3736.0,-0.004
3735.0,-0.0039
3734.0,-0.0039
3733.0,-0.0038
3732.0,-0.0037
3731.0,-0.0037
3730.0,-0.0037
3729.0,-0.0037
3728.0,-0.0037
3727.0,-0.0036
3726.0,-0.0035
3725.0,-0.0035
3724.0,-0.0034
3723.0,-0.0034
3722.0,-0.0033
3721.0,-0.0031
3720.0,-0.003
3719.0,-0.0029
3718.0,-0.0028
3717.0,-0.0029
3716.0,-0.0029
3715.0,-0.0029
3714.0,-0.003
3713.0,-0.0031
3712.0,-0.0033
3711.0,-0.0035
3710.0,-0.0036
3709.0,-0.0035
3708.0,-0.0034
3707.0,-0.0033
3706.0,-0.0034
3705.0,-0.0034
3704.0,-0.0034
3703.0,-0.0033
3702.0,-0.0032
3701.0,-0.0031
3700.0,-0.0031
3699.0,-0.003
3698.0,-0.0029
3697.0,-0.0028
3696.0,-0.0028
3695.0,-0.0028
3694.0,-0.0028
3693.0,-0.0029
3692.0,-0.0029
3691.0,-0.0029
3690.0,-0.0028
3689.0,-0.0029
3688.0,-0.0029
3687.0,-0.0029
3686.0,-0.0028
3685.0,-0.0027
3684.0,-0.0026
3683.0,-0.0026
3682.0,-0.0027
3681.0,-0.0027
3680.0,-0.0028
3679.0,-0.0029
3678.0,-0.003
3677.0,-0.003
3676.0,-0.003
3675.0,-0.0031
3674.0,-0.0032
3673.0,-0.0031
3672.0,-0.003
3671.0,-0.0028
3670.0,-0.0026
3669.0,-0.0025
3668.0,-0.0025
3667.0,-0.0024
3666.0,-0.0023
3665.0,-0.0023
3664.0,-0.0023
3663.0,-0.0023
3662.0,-0.0023
3661.0,-0.0023
3660.0,-0.0024
3659.0,-0.0024
3658.0,-0.0025
3657.0,-0.0025
3656.0,-0.0026
3655.0,-0.0026
3654.0,-0.0026
3653.0,-0.0027
3652.0,-0.0028
3651.0,-0.0029
3650.0,-0.0029
3649.0,-0.0028
3648.0,-0.0028
3647.0,-0.0028
3646.0,-0.0027
3645.0,-0.0027
3644.0,-0.0026
3643.0,-0.0026
3642.0,-0.0026
3641.0,-0.0025
3640.0,-0.0025
3639.0,-0.0025
3638.0,-0.0026
3637.0,-0.0026
3636.0,-0.0026
3635.0,-0.0027
3634.0,-0.0029
3633.0,-0.0031
3632.0,-0.0033
3631.0,-0.0034
3630.0,-0.0034
3629.0,-0.0033
3628.0,-0.0033
3627.0,-0.0033
3626.0,-0.0032
3625.0,-0.0031
3624.0,-0.003
3623.0,-0.003
3622.0,-0.003
3621.0,-0.003
3620.0,-0.003
3619.0,-0.003
3618.0,-0.0029
3617.0,-0.0027
3616.0,-0.0026
3615.0,-0.0025
3614.0,-0.0025
3613.0,-0.0026
3612.0,-0.0027
3611.0,-0.0027
3610.0,-0.0027
3609.0,-0.0026
3608.0,-0.0025
3607.0,-0.0025
3606.0,-0.0025
3605.0,-0.0026
3604.0,-0.0027
3603.0,-0.0027
3602.0,-0.0028
3601.0,-0.0028
3600.0,-0.0028
3599.0,-0.0028
3598.0,-0.0028
3597.0,-0.0027
3596.0,-0.0026
3595.0,-0.0025
3594.0,-0.0026
3593.0,-0.0026
3592.0,-0.0027
3591.0,-0.0027
3590.0,-0.0027
3589.0,-0.0027
3588.0,-0.0027
3587.0,-0.0027
3586.0,-0.0026
3585.0,-0.0026
3584.0,-0.0024
3583.0,-0.0023
3582.0,-0.0023
3581.0,-0.0022
3580.0,-0.0021
3579.0,-0.0021
3578.0,-0.0021
3577.0,-0.0021
3576.0,-0.0021
3575.0,-0.0021
3574.0,-0.0021
3573.0,-0.0022
3572.0,-0.0023
3571.0,-0.0024
3570.0,-0.0024
3569.0,-0.0025
3568.0,-0.0025
3567.0,-0.0025
3566.0,-0.0026
3565.0,-0.0026
3564.0,-0.0025
3563.0,-0.0023
3562.0,-0.0021
3561.0,-0.0019
3560.0,-0.0019
3559.0,-0.0019
3558.0,-0.002
3557.0,-0.002
3556.0,-0.0021
3555.0,-0.0021
3554.0,-0.0021
3553.0,-0.0021
3552.0,-0.0021
3551.0,-0.0021
3550.0,-0.0021
3549.0,-0.0021
3548.0,-0.002
3547.0,-0.002
3546.0,-0.0019
3545.0,-0.0018
3544.0,-0.0018
3543.0,-0.0019
3542.0,-0.0019
3541.0,-0.0019
3540.0,-0.0019
3539.0,-0.0019
3538.0,-0.0019
3537.0,-0.0018
3536.0,-0.0019
3535.0,-0.0019
3534.0,-0.0018
3533.0,-0.0018
3532.0,-0.0018
3531.0,-0.0018
3530.0,-0.0018
3529.0,-0.0018
3528.0,-0.0018
3527.0,-0.0018
3526.0,-0.0019
3525.0,-0.0019
3524.0,-0.0019
3523.0,-0.0019
3522.0,-0.002
3521.0,-0.002
3520.0,-0.0019
3519.0,-0.0019
3518.0,-0.0018
3517.0,-0.0018
3516.0,-0.0017
3515.0,-0.0016
3514.0,-0.0016
3513.0,-0.0016
3512.0,-0.0016
3511.0,-0.0016
3510.0,-0.0016
3509.0,-0.0017
3508.0,-0.0017
3507.0,-0.0017
3506.0,-0.0017
3505.0,-0.0017
3504.0,-0.0017
3503.0,-0.0017
3502.0,-0.0017
3501.0,-0.0017
3500.0,-0.0017
3499.0,-0.0017
3498.0,-0.0016
3497.0,-0.0016
3496.0,-0.0015
3495.0,-0.0014
3494.0,-0.0014
3493.0,-0.0014
3492.0,-0.0014
3491.0,-0.0015
3490.0,-0.0016
3489.0,-0.0016
3488.0,-0.0017
3487.0,-0.0017
3486.0,-0.0017
3485.0,-0.0017
3484.0,-0.0017
3483.0,-0.0017
3482.0,-0.0017
3481.0,-0.0017
3480.0,-0.0017
3479.0,-0.0017
3478.0,-0.0017
3477.0,-0.0016
3476.0,-0.0016
3475.0,-0.0015
3474.0,-0.0015
3473.0,-0.0015
3472.0,-0.0016
3471.0,-0.0016
3470.0,-0.0016
3469.0,-0.0016
3468.0,-0.0016
3467.0,-0.0016
3466.0,-0.0016
3465.0,-0.0016
3464.0,-0.0015
3463.0,-0.0015
3462.0,-0.0015
3461.0,-0.0015
3460.0,-0.0013
3459.0,-0.0012
3458.0,-0.0011
3457.0,-0.0011
3456.0,-0.0013
3455.0,-0.0014
3454.0,-0.0015
3453.0,-0.0016
3452.0,-0.0016
3451.0,-0.0015
3450.0,-0.0014
3449.0,-0.0014
3448.0,-0.0013
3447.0,-0.0013
3446.0,-0.0014
3445.0,-0.0015
3444.0,-0.0015
3443.0,-0.0015
3442.0,-0.0014
3441.0,-0.0013
3440.0,-0.0013
3439.0,-0.0013
3438.0,-0.0013
3437.0,-0.0014
3436.0,-0.0014
3435.0,-0.0013
3434.0,-0.0013
3433.0,-0.0012
3432.0,-0.0012
3431.0,-0.0012
3430.0,-0.0012
3429.0,-0.0012
3428.0,-0.0013
3427.0,-0.0014
3426.0,-0.0013
3425.0,-0.0013
3424.0,-0.0012
3423.0,-0.0012
3422.0,-0.0012
3421.0,-0.0012
3420.0,-0.0012
3419.0,-0.0012
3418.0,-0.0012
3417.0,-0.0012
3416.0,-0.0012
3415.0,-0.0012
3414.0,-0.0011
3413.0,-0.0011
3412.0,-0.0011
3411.0,-0.0011
3410.0,-0.0011
3409.0,-0.0011
3408.0,-0.0012
3407.0,-0.0013
3406.0,-0.0014
3405.0,-0.0014
3404.0,-0.0014
3403.0,-0.0013
3402.0,-0.0012
3401.0,-0.0011
3400.0,-0.0011
3399.0,-0.0011
3398.0,-0.0011
3397.0,-0.0011
3396.0,-0.0011
3395.0,-0.0011
3394.0,-0.0011
3393.0,-0.0011
3392.0,-0.0011
3391.0,-0.0011
3390.0,-0.001
3389.0,-0.001
3388.0,-0.001
3387.0,-0.001
3386.0,-0.001
3385.0,-0.001
3384.0,-0.001
3383.0,-0.0011
3382.0,-0.0011
3381.0,-0.0011
3380.0,-0.0011
3379.0,-0.0011
3378.0,-0.001
3377.0,-0.001
3376.0,-0.001
3375.0,-0.001
3374.0,-0.001
3373.0,-0.0011
3372.0,-0.0011
3371.0,-0.0011
3370.0,-0.0011
3369.0,-0.0011
3368.0,-0.0011
3367.0,-0.001
3366.0,-0.001
3365.0,-0.001
3364.0,-0.001
3363.0,-0.001
3362.0,-0.0011
3361.0,-0.0011
3360.0,-0.0011
3359.0,-0.0011
3358.0,-0.0012
3357.0,-0.0012
3356.0,-0.0013
3355.0,-0.0013
3354.0,-0.0014
3353.0,-0.0013
3352.0,-0.0013
3351.0,-0.0013
3350.0,-0.0012
3349.0,-0.0011
3348.0,-0.0011
3347.0,-0.001
3346.0,-0.001
3345.0,-0.001
3344.0,-0.001
3343.0,-0.001
3342.0,-0.001
3341.0,-0.0011
3340.0,-0.0012
3339.0,-0.0013
3338.0,-0.0014
3337.0,-0.0013
3336.0,-0.0012
3335.0,-0.0011
3334.0,-0.0011
3333.0,-0.001
3332.0,-0.0011
3331.0,-0.0011
3330.0,-0.0011
3329.0,-0.0011
3328.0,-0.0011
3327.0,-0.0011
3326.0,-0.0011
3325.0,-0.0011
3324.0,-0.0011
3323.0,-0.001
3322.0,-0.001
3321.0,-0.0009
3320.0,-0.0009
3319.0,-0.0009
3318.0,-0.001
3317.0,-0.0011
3316.0,-0.0012
3315.0,-0.0011
3314.0,-0.0011
3313.0,-0.001
3312.0,-0.0009
3311.0,-0.0009
3310.0,-0.001
3309.0,-0.001
3308.0,-0.001
3307.0,-0.001
3306.0,-0.001
3305.0,-0.0009
3304.0,-0.0009
3303.0,-0.0009
3302.0,-0.0009
3301.0,-0.0009
3300.0,-0.0009
3299.0,-0.0009
3298.0,-0.0009
3297.0,-0.0009
3296.0,-0.001
3295.0,-0.001
3294.0,-0.001
3293.0,-0.001
3292.0,-0.001
3291.0,-0.0011
3290.0,-0.0011
3289.0,-0.0012
3288.0,-0.0012
3287.0,-0.0012
3286.0,-0.0012
3285.0,-0.0012
3284.0,-0.0011
3283.0,-0.0011
3282.0,-0.001
3281.0,-0.001
3280.0,-0.001
3279.0,-0.001
3278.0,-0.001
3277.0,-0.001
3276.0,-0.0009
3275.0,-0.0009
3274.0,-0.0009
3273.0,-0.0009
3272.0,-0.0009
3271.0,-0.0009
3270.0,-0.0009
3269.0,-0.001
3268.0,-0.001
3267.0,-0.0011
3266.0,-0.0011
3265.0,-0.001
3264.0,-0.001
3263.0,-0.001
3262.0,-0.001
3261.0,-0.001
3260.0,-0.0011
3259.0,-0.0011
3258.0,-0.0011
3257.0,-0.001
3256.0,-0.001
3255.0,-0.0009
3254.0,-0.0009
3253.0,-0.0008
3252.0,-0.0008
3251.0,-0.0008
3250.0,-0.0008
3249.0,-0.0009
3248.0,-0.0009
3247.0,-0.001
3246.0,-0.001
3245.0,-0.0011
3244.0,-0.0011
3243.0,-0.001
3242.0,-0.001
3241.0,-0.001
3240.0,-0.001
3239.0,-0.001
3238.0,-0.001
3237.0,-0.001
3236.0,-0.001
3235.0,-0.0009
3234.0,-0.0009
3233.0,-0.0009
3232.0,-0.0009
3231.0,-0.0009
3230.0,-0.0009
3229.0,-0.0009
3228.0,-0.001
3227.0,-0.001
3226.0,-0.001
3225.0,-0.001
3224.0,-0.0009
3223.0,-0.0009
3222.0,-0.001
3221.0,-0.0011
3220.0,-0.0011
3219.0,-0.0011
3218.0,-0.001
3217.0,-0.0009
3216.0,-0.0009
3215.0,-0.0008
3214.0,-0.0008
3213.0,-0.0008
3212.0,-0.0009
3211.0,-0.001
3210.0,-0.0011
3209.0,-0.0011
3208.0,-0.0011
3207.0,-0.001
3206.0,-0.0009
3205.0,-0.0009
3204.0,-0.001
3203.0,-0.0011
3202.0,-0.0012
3201.0,-0.0013
3200.0,-0.0013
3199.0,-0.0013
3198.0,-0.0013
3197.0,-0.0012
3196.0,-0.0012
3195.0,-0.0011
3194.0,-0.0011
3193.0,-0.0011
3192.0,-0.0011
3191.0,-0.0011
3190.0,-0.0011
3189.0,-0.0012
3188.0,-0.0012
3187.0,-0.0012
3186.0,-0.0012
3185.0,-0.0011
3184.0,-0.0012
3183.0,-0.0012
3182.0,-0.0013
3181.0,-0.0013
3180.0,-0.0013
3179.0,-0.0012
3178.0,-0.0012
3177.0,-0.0011
3176.0,-0.0011
3175.0,-0.001
3174.0,-0.001
3173.0,-0.0011
3172.0,-0.0011
3171.0,-0.0011
3170.0,-0.0012
3169.0,-0.0012
3168.0,-0.0012
3167.0,-0.0011
3166.0,-0.0011
3165.0,-0.001
3164.0,-0.0011
3163.0,-0.0011
3162.0,-0.0012
3161.0,-0.0013
3160.0,-0.0012
3159.0,-0.0012
3158.0,-0.0012
3157.0,-0.0012
3156.0,-0.0012
3155.0,-0.0011
3154.0,-0.0011
3153.0,-0.0011
3152.0,-0.0012
3151.0,-0.0012
3150.0,-0.0012
3149.0,-0.0012
3148.0,-0.0013
3147.0,-0.0013
3146.0,-0.0012
3145.0,-0.0012
3144.0,-0.0011
3143.0,-0.0011
3142.0,-0.0011
3141.0,-0.001
3140.0,-0.001
3139.0,-0.0011
3138.0,-0.0011
3137.0,-0.0011
3136.0,-0.0012
3135.0,-0.0012
3134.0,-0.0012
3133.0,-0.0012
3132.0,-0.0012
3131.0,-0.0012
3130.0,-0.0011
3129.0,-0.0011
3128.0,-0.0011
3127.0,-0.0011
3126.0,-0.0012
3125.0,-0.0013
3124.0,-0.0013
3123.0,-0.0013
3122.0,-0.0013
3121.0,-0.0012
3120.0,-0.0012
3119.0,-0.0012
3118.0,-0.0011
3117.0,-0.0011
3116.0,-0.0011
3115.0,-0.0011
3114.0,-0.0011
3113.0,-0.0011
3112.0,-0.0011
3111.0,-0.0011
3110.0,-0.0012
3109.0,-0.0012
3108.0,-0.0012
3107.0,-0.0012
3106.0,-0.0012
3105.0,-0.0012
3104.0,-0.0012
3103.0,-0.0011
3102.0,-0.001
3101.0,-0.001
3100.0,-0.001
3099.0,-0.001
3098.0,-0.001
3097.0,-0.001
3096.0,-0.001
3095.0,-0.0011
3094.0,-0.0011
3093.0,-0.0011
3092.0,-0.0011
3091.0,-0.0011
3090.0,-0.0011
3089.0,-0.0011
3088.0,-0.0011
3087.0,-0.0012
3086.0,-0.0012
3085.0,-0.0012
3084.0,-0.0012
3083.0,-0.0012
3082.0,-0.0012
3081.0,-0.0011
3080.0,-0.0011
3079.0,-0.0011
3078.0,-0.0012
3077.0,-0.0012
3076.0,-0.0012
3075.0,-0.0013
3074.0,-0.0013
3073.0,-0.0013
3072.0,-0.0013
3071.0,-0.0012
3070.0,-0.0011
3069.0,-0.0011
3068.0,-0.0011
3067.0,-0.0011
3066.0,-0.0011
3065.0,-0.0012
3064.0,-0.0012
3063.0,-0.0012
3062.0,-0.0012
3061.0,-0.0012
3060.0,-0.0012
3059.0,-0.0012
3058.0,-0.0012
3057.0,-0.0011
3056.0,-0.0011
3055.0,-0.001
3054.0,-0.001
3053.0,-0.001
3052.0,-0.001
3051.0,-0.001
3050.0,-0.001
3049.0,-0.0011
3048.0,-0.0011
3047.0,-0.0011
3046.0,-0.0012
3045.0,-0.0013
3044.0,-0.0014
3043.0,-0.0014
3042.0,-0.0014
3041.0,-0.0013
3040.0,-0.0012
3039.0,-0.0011
3038.0,-0.0011
3037.0,-0.0011
3036.0,-0.0011
3035.0,-0.0012
3034.0,-0.0012
3033.0,-0.0012
3032.0,-0.0012
3031.0,-0.0011
3030.0,-0.0011
3029.0,-0.0011
3028.0,-0.0011
3027.0,-0.0011
3026.0,-0.0011
3025.0,-0.0011
3024.0,-0.0011
3023.0,-0.0012
3022.0,-0.0012
3021.0,-0.0012
3020.0,-0.0012
3019.0,-0.0012
3018.0,-0.0012
3017.0,-0.0012
3016.0,-0.0012
3015.0,-0.0011
3014.0,-0.001
3013.0,-0.001
3012.0,-0.0009
3011.0,-0.0009
3010.0,-0.001
3009.0,-0.001
3008.0,-0.0011
3007.0,-0.0011
3006.0,-0.0011
3005.0,-0.001
3004.0,-0.001
3003.0,-0.0011
3002.0,-0.0011
3001.0,-0.0011
3000.0,-0.0011
2999.0,-0.0012
2998.0,-0.0012
2997.0,-0.0011
2996.0,-0.001
2995.0,-0.001
2994.0,-0.001
2993.0,-0.001
2992.0,-0.0011
2991.0,-0.0011
2990.0,-0.0011
2989.0,-0.0011
2988.0,-0.0011
2987.0,-0.0011
2986.0,-0.001
2985.0,-0.001
2984.0,-0.001
2983.0,-0.001
2982.0,-0.001
2981.0,-0.001
2980.0,-0.001
2979.0,-0.0009
2978.0,-0.0009
2977.0,-0.001
2976.0,-0.0011
2975.0,-0.0011
2974.0,-0.0012
2973.0,-0.0012
2972.0,-0.0012
2971.0,-0.0012
2970.0,-0.0011
2969.0,-0.0011
2968.0,-0.001
2967.0,-0.001
2966.0,-0.001
2965.0,-0.001
2964.0,-0.001
2963.0,-0.001
2962.0,-0.0009
2961.0,-0.0009
2960.0,-0.0008
2959.0,-0.0008
2958.0,-0.0008
2957.0,-0.0008
2956.0,-0.0009
2955.0,-0.0009
2954.0,-0.001
2953.0,-0.0009
2952.0,-0.0009
2951.0,-0.0008
2950.0,-0.0008
2949.0,-0.0009
2948.0,-0.0009
2947.0,-0.0009
2946.0,-0.001
2945.0,-0.001
2944.0,-0.001
2943.0,-0.0011
2942.0,-0.0011
2941.0,-0.0011
2940.0,-0.0011
2939.0,-0.001
2938.0,-0.001
2937.0,-0.001
2936.0,-0.001
2935.0,-0.001
2934.0,-0.001
2933.0,-0.001
2932.0,-0.001
2931.0,-0.001
2930.0,-0.0009
2929.0,-0.0009
2928.0,-0.0009
2927.0,-0.0009
2926.0,-0.0008
2925.0,-0.0008
2924.0,-0.0008
2923.0,-0.0008
2922.0,-0.0009
2921.0,-0.0009
2920.0,-0.0008
2919.0,-0.0009
2918.0,-0.0009
2917.0,-0.001
2916.0,-0.001
2915.0,-0.001
2914.0,-0.001
2913.0,-0.0009
2912.0,-0.0009
2911.0,-0.0009
2910.0,-0.0009
2909.0,-0.0009
2908.0,-0.0009
2907.0,-0.0009
2906.0,-0.0009
2905.0,-0.001
2904.0,-0.001
2903.0,-0.0009
2902.0,-0.0009
2901.0,-0.0009
2900.0,-0.0009
2899.0,-0.0009
2898.0,-0.001
2897.0,-0.001
2896.0,-0.001
2895.0,-0.001
2894.0,-0.001
2893.0,-0.001
2892.0,-0.001
2891.0,-0.001
2890.0,-0.0009
2889.0,-0.0009
2888.0,-0.0009
2887.0,-0.0009
2886.0,-0.0009
2885.0,-0.001
2884.0,-0.001
2883.0,-0.001
2882.0,-0.001
2881.0,-0.001
2880.0,-0.001
2879.0,-0.001
2878.0,-0.001
2877.0,-0.001
2876.0,-0.0009
2875.0,-0.0008
2874.0,-0.0008
2873.0,-0.0008
2872.0,-0.0008
2871.0,-0.0009
2870.0,-0.0009
2869.0,-0.0008
2868.0,-0.0008
2867.0,-0.0008
2866.0,-0.0008
2865.0,-0.0009
2864.0,-0.0009
2863.0,-0.001
2862.0,-0.001
2861.0,-0.0009
2860.0,-0.0009
2859.0,-0.0009
2858.0,-0.0009
2857.0,-0.0008
2856.0,-0.0007
2855.0,-0.0007
2854.0,-0.0008
2853.0,-0.0009
2852.0,-0.001
2851.0,-0.001
2850.0,-0.0009
2849.0,-0.0008
2848.0,-0.0008
2847.0,-0.0008
2846.0,-0.0008
2845.0,-0.0008
2844.0,-0.0008
2843.0,-0.0008
2842.0,-0.0009
2841.0,-0.0009
2840.0,-0.0008
2839.0,-0.0008
2838.0,-0.0008
2837.0,-0.0008
2836.0,-0.0008
2835.0,-0.0008
2834.0,-0.0008
2833.0,-0.0008
2832.0,-0.0008
2831.0,-0.0008
2830.0,-0.0009
2829.0,-0.0009
2828.0,-0.0009
2827.0,-0.0008
2826.0,-0.0008
2825.0,-0.0008
2824.0,-0.0009
2823.0,-0.0009
2822.0,-0.0009
2821.0,-0.0009
2820.0,-0.0009
2819.0,-0.0009
2818.0,-0.0009
2817.0,-0.0008
2816.0,-0.0008
2815.0,-0.0008
2814.0,-0.0008
2813.0,-0.0008
2812.0,-0.0008
2811.0,-0.0007
2810.0,-0.0007
2809.0,-0.0007
2808.0,-0.0008
2807.0,-0.0009
2806.0,-0.001
2805.0,-0.001
2804.0,-0.001
2803.0,-0.001
2802.0,-0.0009
2801.0,-0.0009
2800.0,-0.0009
2799.0,-0.0009
2798.0,-0.0009
2797.0,-0.0009
2796.0,-0.001
2795.0,-0.001
2794.0,-0.0009
2793.0,-0.0009
2792.0,-0.0008
2791.0,-0.0008
2790.0,-0.0009
2789.0,-0.0009
2788.0,-0.0008
2787.0,-0.0007
2786.0,-0.0007
2785.0,-0.0007
2784.0,-0.0007
2783.0,-0.0008
2782.0,-0.0009
2781.0,-0.0009
2780.0,-0.0008
2779.0,-0.0008
2778.0,-0.0008
2777.0,-0.0008
2776.0,-0.0008
2775.0,-0.0008
2774.0,-0.0008
2773.0,-0.0008
2772.0,-0.0008
2771.0,-0.0008
2770.0,-0.0008
2769.0,-0.0007
2768.0,-0.0008
2767.0,-0.0008
2766.0,-0.0008
2765.0,-0.0008
2764.0,-0.0007
2763.0,-0.0007
2762.0,-0.0007
2761.0,-0.0007
2760.0,-0.0007
2759.0,-0.0007
2758.0,-0.0007
2757.0,-0.0008
2756.0,-0.0008
2755.0,-0.0008
2754.0,-0.0007
2753.0,-0.0007
2752.0,-0.0007
2751.0,-0.0007
2750.0,-0.0007
2749.0,-0.0007
2748.0,-0.0008
2747.0,-0.0008
2746.0,-0.0008
2745.0,-0.0007
2744.0,-0.0007
2743.0,-0.0007
2742.0,-0.0008
2741.0,-0.0008
2740.0,-0.0008
2739.0,-0.0008
2738.0,-0.0008
2737.0,-0.0007
2736.0,-0.0007
2735.0,-0.0007
2734.0,-0.0007
2733.0,-0.0007
2732.0,-0.0007
2731.0,-0.0007
2730.0,-0.0007
2729.0,-0.0007
2728.0,-0.0007
2727.0,-0.0007
2726.0,-0.0007
2725.0,-0.0007
2724.0,-0.0007
2723.0,-0.0007
2722.0,-0.0007
2721.0,-0.0007
2720.0,-0.0007
2719.0,-0.0007
2718.0,-0.0007
2717.0,-0.0007
2716.0,-0.0007
2715.0,-0.0008
2714.0,-0.0008
2713.0,-0.0007
2712.0,-0.0006
2711.0,-0.0006
2710.0,-0.0006
2709.0,-0.0006
2708.0,-0.0006
2707.0,-0.0006
2706.0,-0.0006
2705.0,-0.0006
2704.0,-0.0006
2703.0,-0.0007
2702.0,-0.0007
2701.0,-0.0007
2700.0,-0.0006
2699.0,-0.0006
2698.0,-0.0006
2697.0,-0.0006
2696.0,-0.0006
2695.0,-0.0006
2694.0,-0.0006
2693.0,-0.0006
2692.0,-0.0005
2691.0,-0.0004
2690.0,-0.0004
2689.0,-0.0004
2688.0,-0.0004
2687.0,-0.0005
2686.0,-0.0006
2685.0,-0.0006
2684.0,-0.0006
2683.0,-0.0006
2682.0,-0.0006
2681.0,-0.0005
2680.0,-0.0006
2679.0,-0.0006
2678.0,-0.0006
2677.0,-0.0006
2676.0,-0.0006
2675.0,-0.0006
2674.0,-0.0005
2673.0,-0.0005
2672.0,-0.0005
2671.0,-0.0005
2670.0,-0.0005
2669.0,-0.0004
2668.0,-0.0004
2667.0,-0.0004
2666.0,-0.0005
2665.0,-0.0005
2664.0,-0.0005
2663.0,-0.0005
2662.0,-0.0005
2661.0,-0.0005
2660.0,-0.0005
2659.0,-0.0006
2658.0,-0.0006
2657.0,-0.0006
2656.0,-0.0006
