nm,Intensity
528.615,1831.49
528.699,1831.38
528.784,1831.3
528.868,1831.84
528.952,1831.88
529.036,1832.29
529.121,1832.3
529.205,1831.44
529.289,1831.7
529.373,1832.5
529.458,1831.8
529.542,1832.19
529.626,1832.69
529.71,1832.0
529.795,1831.76
529.879,1832.25
529.963,1831.95
530.047,1832.43
530.132,1832.63
530.216,1832.07
530.3,1832.19
530.384,1832.21
530.469,1832.14
530.553,1832.14
530.637,1832.43
530.721,1832.57
530.806,1833.34
530.89,1833.26
530.974,1834.3
531.058,1834.03
531.143,1835.21
531.227,1835.79
531.311,1838.49
531.395,1839.57
531.479,1844.03
531.564,1856.99
531.648,1906.79
531.732,2120.01
531.816,2742.29
531.901,3810.01
531.985,4718.81
532.069,4800.27
532.153,3635.98
532.237,2365.2
532.322,1898.91
532.406,1841.41
532.49,1836.61
532.574,1835.54
532.658,1834.64
532.743,1834.11
532.827,1834.41
532.911,1834.13
532.995,1835.0
533.079,1834.65
533.164,1835.65
533.248,1837.13
533.332,1842.06
533.416,1855.54
533.5,1901.6
533.585,2011.65
533.669,2198.04
533.753,2408.89
533.837,2588.88
533.921,2709.49
534.005,2780.94
534.09,2817.59
534.174,2831.51
534.258,2833.9
534.342,2830.99
534.426,2835.48
534.511,2851.49
534.595,2915.11
534.679,2967.2
534.763,3027.21
534.847,3056.69
534.931,3054.26
535.016,3067.46
535.1,3096.63
535.184,3072.0
535.268,3006.5
535.352,2971.29
535.436,2943.56
535.52,2912.88
535.605,2882.09
535.689,2859.75
535.773,2842.75
535.857,2821.99
535.941,2823.02
536.025,2823.1
536.109,2826.65
536.194,2820.71
536.278,2828.1
536.362,2841.16
536.446,2845.34
536.53,2881.1
536.614,2921.79
536.698,2959.29
536.783,2989.65
536.867,2999.07
536.951,3024.79
537.035,3015.5
537.119,3011.11
537.203,2980.11
537.287,2944.52
537.371,2932.59
537.456,2922.82
537.54,2915.29
537.624,2921.69
537.708,2928.64
537.792,2921.85
537.876,2914.76
537.96,2906.69
538.044,2899.71
538.128,2898.25
538.213,2905.31
538.297,2910.24
538.381,2916.66
538.465,2914.82
538.549,2919.16
538.633,2930.25
538.717,2946.66
538.801,2960.27
538.885,2962.74
538.969,2995.82
539.053,2990.94
539.138,2996.54
539.222,3030.86
539.306,3051.51
539.39,3037.64
539.474,3028.43
539.558,3009.98
539.642,3013.46
539.726,3001.09
539.81,2986.66
539.894,3006.43
539.978,3010.65
540.062,3008.3
540.147,3005.46
540.231,2995.88
540.315,3004.2
540.399,3003.9
540.483,3018.46
540.567,3040.76
540.651,3034.71
540.735,3054.89
540.819,3056.38
540.903,3052.86
540.987,3070.44
541.071,3105.06
541.155,3131.91
541.239,3139.48
541.323,3117.2
541.407,3089.81
541.491,3097.3
541.575,3090.63
541.66,3078.45
541.744,3093.43
541.828,3093.82
541.912,3096.98
541.996,3087.9
542.08,3115.23
542.164,3101.88
542.248,3112.63
542.332,3112.56
542.416,3096.51
542.5,3108.86
542.584,3112.66
542.668,3125.38
542.752,3145.66
542.836,3143.96
542.92,3150.6
543.004,3191.79
543.088,3209.88
543.172,3232.54
543.256,3267.35
543.34,3356.55
543.424,3474.05
543.508,3601.4
543.592,3637.3
543.676,3555.61
543.76,3453.48
543.844,3342.7
543.928,3278.65
544.012,3251.27
544.096,3261.56
544.18,3239.27
544.264,3214.43
544.348,3213.09
544.432,3218.23
544.516,3218.9
544.6,3238.57
544.684,3250.95
544.768,3268.84
544.852,3283.38
544.936,3297.36
545.02,3325.41
545.104,3341.88
545.188,3359.66
545.272,3388.04
545.356,3391.52
545.44,3349.94
545.524,3306.88
545.608,3301.07
545.692,3284.05
545.776,3272.63
545.86,3292.54
545.944,3300.35
546.028,3302.09
546.112,3290.45
546.195,3285.89
546.279,3264.88
546.363,3283.34
546.447,3312.02
546.531,3329.64
546.615,3318.11
546.699,3298.59
546.783,3313.25
546.867,3319.26
546.951,3317.36
547.035,3362.76
547.119,3384.06
547.203,3394.0
547.287,3432.93
547.371,3450.6
547.455,3455.13
547.539,3440.18
547.623,3421.8
547.706,3398.19
547.79,3367.77
547.874,3358.15
547.958,3359.8
548.042,3368.48
548.126,3401.44
548.21,3391.46
548.294,3387.26
548.378,3391.68
548.462,3379.99
548.546,3399.19
548.63,3392.89
548.713,3394.39
548.797,3394.9
548.881,3378.21
548.965,3385.43
549.049,3380.95
549.133,3371.56
549.217,3379.57
549.301,3380.57
549.385,3385.82
549.469,3375.14
549.552,3381.35
549.636,3398.41
549.72,3414.46
549.804,3400.99
549.888,3400.54
549.972,3393.3
550.056,3393.5
550.14,3421.84
550.224,3407.55
550.307,3421.95
550.391,3450.24
550.475,3422.99
550.559,3426.91
550.643,3442.04
550.727,3439.85
550.811,3479.49
550.895,3470.27
550.978,3466.45
551.062,3462.75
551.146,3474.69
551.23,3466.63
551.314,3482.84
551.398,3514.07
551.482,3550.14
551.565,3537.21
551.649,3501.09
551.733,3483.25
551.817,3495.21
551.901,3539.55
551.985,3526.02
552.069,3511.44
552.152,3513.85
552.236,3515.73
552.32,3539.89
552.404,3549.43
552.488,3538.84
552.572,3533.02
552.655,3531.91
552.739,3546.13
552.823,3535.1
552.907,3548.84
552.991,3544.19
553.075,3527.8
553.158,3536.23
553.242,3541.96
553.326,3554.5
553.41,3558.64
553.494,3568.91
553.577,3581.05
553.661,3575.14
553.745,3581.11
553.829,3606.57
553.913,3584.63
553.997,3593.27
554.08,3614.41
554.164,3612.82
554.248,3599.41
554.332,3633.86
554.416,3651.14
554.499,3655.06
554.583,3632.19
554.667,3652.49
554.751,3673.69
554.835,3660.04
554.918,3684.48
555.002,3692.64
555.086,3680.55
555.17,3683.34
555.253,3691.7
555.337,3738.3
555.421,3754.93
555.505,3762.15
555.589,3794.39
555.672,3867.35
555.756,4001.8
555.84,4214.79
555.924,4456.24
556.007,4605.66
556.091,4603.3
556.175,4347.99
556.259,4092.57
556.342,3959.73
556.426,3864.45
556.51,3869.65
556.594,3922.19
556.678,3953.1
556.761,4031.52
556.845,4175.34
556.929,4297.95
557.013,4330.63
557.096,4249.17
557.18,4121.91
557.264,3961.9
557.347,3879.41
557.431,3885.26
557.515,3889.11
557.599,3866.51
557.682,3850.41
557.766,3864.43
557.85,3822.25
557.934,3809.05
558.017,3827.77
558.101,3859.75
558.185,3859.94
558.269,3847.54
558.352,3848.95
558.436,3860.36
558.52,3855.79
558.603,3858.85
558.687,3912.82
558.771,3909.99
558.855,3895.52
558.938,3900.88
559.022,3923.46
559.106,3895.7
559.189,3889.41
559.273,3895.24
559.357,3885.38
559.44,3880.81
559.524,3859.66
559.608,3871.36
559.692,3901.24
559.775,3937.23
559.859,3957.32
559.943,3968.3
560.026,4006.07
560.11,4046.18
560.194,4083.14
560.277,4038.5
560.361,3979.36
560.445,3972.11
560.528,3980.36
560.612,3962.36
560.696,3982.49
560.779,4056.02
560.863,4125.61
560.947,4210.05
561.03,4315.41
561.114,4437.79
561.198,4406.19
561.281,4307.46
561.365,4186.73
561.449,4079.8
561.532,4055.9
561.616,4053.01
561.7,4109.3
561.783,4140.42
561.867,4212.64
561.951,4247.83
562.034,4241.9
562.118,4183.24
562.202,4129.73
562.285,4064.44
562.369,4030.88
562.452,4054.39
562.536,4072.61
562.62,4072.43
562.703,4066.8
562.787,4056.86
562.871,4069.41
562.954,4132.92
563.038,4199.84
563.122,4231.02
563.205,4270.9
563.289,4245.06
563.372,4190.54
563.456,4185.52
563.54,4167.88
563.623,4131.26
563.707,4057.69
563.79,4051.99
563.874,4074.48
563.958,4069.21
564.041,4048.1
564.125,4048.05
564.208,4076.69
564.292,4065.8
564.376,4052.59
564.459,4089.27
564.543,4098.2
564.626,4107.76
564.71,4069.0
564.794,4089.04
564.877,4129.34
564.961,4123.14
565.044,4138.23
565.128,4150.02
565.212,4178.17
565.295,4164.91
565.379,4179.5
565.462,4207.81
565.546,4186.81
565.629,4142.27
565.713,4113.02
565.797,4133.23
565.88,4138.24
565.964,4150.36
566.047,4175.15
566.131,4164.34
566.214,4149.56
566.298,4153.75
566.381,4195.69
566.465,4294.16
566.549,4366.1
566.632,4409.01
566.716,4510.2
566.799,4629.14
566.883,4700.55
566.966,4700.26
567.05,4627.75
567.133,4598.99
567.217,4681.91
567.3,4738.69
567.384,4677.74
567.468,4586.83
567.551,4470.02
567.635,4374.59
567.718,4273.73
567.802,4251.3
567.885,4239.79
567.969,4227.89
568.052,4235.96
568.136,4216.33
568.219,4209.13
568.303,4224.92
568.386,4292.61
568.47,4249.66
568.553,4228.05
568.637,4245.15
568.72,4278.35
568.804,4356.27
568.887,4440.14
568.971,4499.35
569.054,4471.3
569.138,4423.56
569.221,4358.55
569.305,4344.73
569.388,4277.81
569.472,4258.19
569.555,4246.69
569.639,4255.35
569.722,4229.83
569.806,4230.34
569.889,4264.86
569.973,4316.25
570.056,4347.49
570.14,4361.41
570.223,4350.11
570.307,4295.2
570.39,4253.35
570.474,4264.36
570.557,4287.55
570.64,4266.63
570.724,4291.23
570.807,4265.8
570.891,4269.02
570.974,4308.05
571.058,4311.51
571.141,4291.6
571.225,4295.54
571.308,4327.66
571.392,4372.63
571.475,4370.58
571.558,4367.88
571.642,4371.4
571.725,4381.13
571.809,4418.77
571.892,4420.66
571.976,4401.79
572.059,4418.5
572.143,4430.83
572.226,4485.33
572.309,4585.67
572.393,4676.35
572.476,4832.04
572.56,4955.91
572.643,4956.14
572.726,4876.59
572.81,4685.9
572.893,4547.4
572.977,4506.2
573.06,4474.39
573.144,4460.79
573.227,4440.21
573.31,4456.56
573.394,4506.05
573.477,4545.41
573.561,4561.88
573.644,4589.14
573.727,4589.19
573.811,4549.64
573.894,4469.65
573.978,4429.8
574.061,4419.2
574.144,4391.67
574.228,4368.09
574.311,4359.65
574.395,4328.06
574.478,4289.65
574.561,4309.38
574.645,4315.01
574.728,4326.0
574.811,4320.91
574.895,4350.14
574.978,4342.3
575.062,4326.05
575.145,4321.23
575.228,4303.58
575.312,4309.17
575.395,4301.27
575.478,4340.46
575.562,4360.73
575.645,4364.76
575.728,4352.36
575.812,4412.02
575.895,4521.59
575.978,4571.19
576.062,4627.94
576.145,4688.29
576.228,4698.81
576.312,4694.46
576.395,4689.3
576.478,4751.05
576.562,4834.48
576.645,4976.71
576.728,5119.79
576.812,5228.61
576.895,5240.48
576.978,5197.96
577.062,5087.48
577.145,4900.09
577.228,4706.46
577.312,4585.14
577.395,4529.21
577.478,4480.66
577.562,4428.3
577.645,4395.34
577.728,4346.49
577.812,4365.5
577.895,4378.88
577.978,4399.3
578.062,4391.05
578.145,4378.88
578.228,4375.76
578.311,4377.84
578.395,4397.5
578.478,4425.85
578.561,4410.24
578.645,4398.02
578.728,4406.02
578.811,4408.05
578.894,4400.59
578.978,4413.48
579.061,4420.58
579.144,4420.14
579.228,4412.01
579.311,4385.45
579.394,4395.42
579.477,4429.71
579.561,4383.64
579.644,4384.3
579.727,4427.76
579.81,4433.09
579.894,4386.45
579.977,4365.13
580.06,4397.85
580.144,4442.55
580.227,4405.58
580.31,4386.63
580.393,4400.52
580.477,4437.05
580.56,4413.13
580.643,4411.54
580.726,4408.36
580.809,4439.06
580.893,4448.61
580.976,4440.45
581.059,4439.6
581.142,4442.34
581.226,4409.65
581.309,4373.44
581.392,4399.8
581.475,4420.02
581.559,4434.25
581.642,4446.94
581.725,4441.44
581.808,4430.29
581.891,4420.64
581.975,4485.25
582.058,4502.17
582.141,4499.01
582.224,4466.24
582.307,4427.21
582.391,4459.85
582.474,4455.11
582.557,4434.33
582.64,4415.99
582.723,4389.38
582.807,4347.51
582.89,4381.92
582.973,4439.66
583.056,4448.4
583.139,4422.52
583.223,4459.08
583.306,4450.08
583.389,4437.06
583.472,4452.09
583.555,4446.92
583.639,4472.21
583.722,4449.3
583.805,4457.85
583.888,4424.15
583.971,4415.49
584.054,4407.65
584.138,4448.27
584.221,4462.15
584.304,4497.36
584.387,4518.74
584.47,4476.55
584.553,4444.74
584.636,4425.58
584.72,4405.86
584.803,4413.96
584.886,4425.95
584.969,4428.24
585.052,4443.88
585.135,4459.89
585.218,4434.21
585.302,4459.2
585.385,4441.56
585.468,4441.91
585.551,4438.33
585.634,4422.59
585.717,4470.52
585.8,4458.88
585.884,4447.69
585.967,4439.88
586.05,4433.59
586.133,4402.84
586.216,4414.0
586.299,4433.81
586.382,4454.71
586.465,4438.99
586.548,4408.39
586.632,4438.51
586.715,4463.59
586.798,4482.66
586.881,4465.38
586.964,4473.67
587.047,4466.83
587.13,4466.88
587.213,4497.09
587.296,4471.81
587.379,4473.88
587.463,4475.1
587.546,4509.88
587.629,4498.4
587.712,4507.06
587.795,4502.08
587.878,4504.73
587.961,4467.0
588.044,4471.27
588.127,4486.88
588.21,4470.52
588.293,4482.51
588.376,4481.88
588.459,4491.24
588.542,4502.63
588.626,4513.67
588.709,4483.61
588.792,4465.49
588.875,4480.59
588.958,4490.35
589.041,4477.2
589.124,4486.52
589.207,4471.39
589.29,4484.4
589.373,4479.77
589.456,4451.33
589.539,4435.2
589.622,4413.75
589.705,4440.19
589.788,4463.74
589.871,4485.79
589.954,4484.14
590.037,4469.59
590.12,4483.15
590.203,4463.23
590.286,4474.1
590.369,4474.73
590.452,4489.5
590.535,4516.74
590.618,4562.01
590.701,4515.45
590.784,4468.79
590.867,4456.13
590.95,4456.35
591.033,4482.76
591.116,4506.71
591.199,4475.14
591.282,4505.5
591.365,4535.89
591.448,4510.46
591.531,4524.48
591.614,4482.2
591.697,4509.92
591.78,4507.31
591.863,4522.1
591.946,4533.38
592.029,4520.73
592.112,4492.69
592.195,4497.79
592.278,4511.06
592.361,4537.58
592.444,4545.4
592.527,4525.4
592.61,4551.67
592.693,4557.77
592.776,4555.0
592.859,4531.0
592.942,4485.39
593.025,4477.54
593.108,4497.89
593.191,4535.33
593.274,4534.76
593.357,4515.91
593.44,4509.86
593.523,4537.3
593.606,4517.51
593.688,4490.65
593.771,4491.96
593.854,4496.36
593.937,4551.0
594.02,4558.42
594.103,4516.91
594.186,4479.58
594.269,4489.4
594.352,4519.19
594.435,4542.19
594.518,4511.06
594.601,4466.88
594.684,4504.59
594.767,4537.69
594.849,4536.11
594.932,4549.61
595.015,4516.71
595.098,4539.35
595.181,4550.19
595.264,4530.21
595.347,4538.83
595.43,4553.52
595.513,4531.99
595.596,4568.49
595.678,4554.99
595.761,4603.25
595.844,4587.3
595.927,4596.83
596.01,4569.55
596.093,4553.54
596.176,4566.49
596.259,4599.09
596.341,4588.33
596.424,4566.1
596.507,4517.25
596.59,4499.86
596.673,4557.59
596.756,4545.5
596.839,4560.16
596.922,4567.66
597.004,4627.61
597.087,4619.98
597.17,4579.01
597.253,4565.58
597.336,4544.02
597.419,4527.17
597.502,4537.51
597.584,4560.76
597.667,4544.55
597.75,4531.09
597.833,4604.7
597.916,4584.86
597.999,4558.84
598.081,4583.1
598.164,4559.14
598.247,4562.83
598.33,4573.49
598.413,4537.92
598.496,4549.05
598.578,4567.44
598.661,4562.31
598.744,4562.42
598.827,4534.34
598.91,4555.75
598.992,4578.98
599.075,4577.52
599.158,4586.76
599.241,4590.14
599.324,4546.6
599.406,4580.6
599.489,4582.73
599.572,4565.95
599.655,4590.63
599.738,4617.79
599.82,4598.65
599.903,4600.54
599.986,4604.88
600.069,4581.21
600.152,4559.11
600.234,4561.34
600.317,4543.09
600.4,4552.52
600.483,4573.15
600.565,4564.94
600.648,4560.73
600.731,4584.76
600.814,4595.33
600.896,4606.1
600.979,4565.09
601.062,4564.5
601.145,4549.36
601.228,4551.92
601.31,4583.91
601.393,4579.27
601.476,4561.58
601.558,4545.5
601.641,4591.89
601.724,4612.6
601.807,4568.9
601.889,4547.26
601.972,4574.26
602.055,4537.74
602.138,4543.5
602.22,4553.77
602.303,4550.73
602.386,4567.86
602.469,4591.17
602.551,4583.38
602.634,4579.21
602.717,4541.52
602.799,4560.0
602.882,4587.83
602.965,4600.04
603.048,4604.16
603.13,4631.13
603.213,4602.55
603.296,4570.35
603.378,4559.73
603.461,4578.54
603.544,4537.0
603.626,4511.75
603.709,4540.06
603.792,4554.6
603.875,4576.7
603.957,4574.65
604.04,4583.88
604.123,4573.39
604.205,4574.49
604.288,4559.56
604.371,4571.94
604.453,4584.66
604.536,4596.29
604.619,4567.83
604.701,4538.83
604.784,4516.27
604.867,4537.8
604.949,4564.75
605.032,4554.15
605.115,4550.51
605.197,4564.77
605.28,4545.66
605.363,4575.75
605.445,4610.81
605.528,4542.27
605.611,4499.13
605.693,4521.06
605.776,4550.49
605.858,4553.41
605.941,4541.13
606.024,4577.5
606.106,4579.25
606.189,4549.98
606.272,4536.19
606.354,4558.84
606.437,4540.26
606.519,4542.33
606.602,4535.11
606.685,4585.3
606.767,4574.25
606.85,4538.49
606.933,4522.1
607.015,4512.44
607.098,4519.14
607.18,4575.7
607.263,4572.01
607.346,4586.56
607.428,4549.84
607.511,4526.73
607.593,4543.67
607.676,4546.67
607.759,4520.1
607.841,4492.7
607.924,4490.86
608.006,4551.99
608.089,4577.35
608.171,4581.05
608.254,4572.48
608.337,4530.19
608.419,4506.81
608.502,4501.52
608.584,4483.05
608.667,4512.34
608.749,4526.79
608.832,4516.16
608.915,4510.41
608.997,4535.27
609.08,4535.63
609.162,4544.77
609.245,4481.96
609.327,4481.67
609.41,4484.61
609.492,4509.19
609.575,4486.83
609.658,4496.4
609.74,4516.46
609.823,4507.61
609.905,4535.08
609.988,4546.58
610.07,4534.41
610.153,4495.29
610.235,4498.25
610.318,4474.86
610.4,4488.77
610.483,4545.14
610.565,4554.83
610.648,4543.44
610.73,4547.42
610.813,4462.36
610.895,4462.26
610.978,4509.19
611.06,4524.04
611.143,4532.84
611.225,4502.85
611.308,4514.83
611.39,4503.08
611.473,4447.8
611.555,4425.1
611.638,4461.83
611.72,4493.83
611.803,4515.98
611.885,4482.09
611.968,4453.2
612.05,4481.58
612.133,4473.33
612.215,4480.36
612.298,4484.48
612.38,4494.96
612.463,4487.48
612.545,4470.96
612.628,4455.58
612.71,4478.08
612.792,4484.33
612.875,4462.05
612.957,4454.01
613.04,4423.8
613.122,4420.27
613.205,4433.13
613.287,4481.01
613.37,4464.6
613.452,4453.94
613.534,4468.29
613.617,4465.55
613.699,4455.5
613.782,4465.46
613.864,4444.39
613.947,4427.16
614.029,4450.27
614.111,4421.26
614.194,4475.29
614.276,4478.29
614.359,4449.48
614.441,4445.86
614.524,4447.84
614.606,4467.94
614.688,4420.48
614.771,4422.3
614.853,4402.73
614.936,4439.13
615.018,4430.99
615.1,4457.08
615.183,4448.73
615.265,4467.83
615.348,4453.41
615.43,4474.61
615.512,4448.88
615.595,4421.06
615.677,4408.88
615.76,4404.56
615.842,4384.65
615.924,4408.86
616.007,4447.05
616.089,4443.88
616.171,4417.96
616.254,4412.05
616.336,4429.95
616.418,4415.17
616.501,4416.88
616.583,4407.14
616.666,4417.24
616.748,4423.85
616.83,4419.64
616.913,4430.73
616.995,4406.85
617.077,4396.2
617.16,4411.74
617.242,4409.48
617.324,4435.56
617.407,4439.26
617.489,4397.66
617.571,4415.06
617.654,4429.96
617.736,4446.05
617.818,4460.81
617.901,4394.48
617.983,4351.61
618.065,4376.58
618.148,4420.89
618.23,4388.0
618.312,4407.88
618.395,4432.86
618.477,4419.92
618.559,4438.84
618.641,4431.2
618.724,4391.2
618.806,4400.52
618.888,4367.55
618.971,4385.41
619.053,4380.05
619.135,4388.58
619.218,4423.81
619.3,4469.81
619.382,4452.56
619.464,4444.06
619.547,4433.17
619.629,4473.44
619.711,4498.09
619.793,4454.56
619.876,4443.01
619.958,4430.42
620.04,4421.15
620.123,4444.69
620.205,4488.33
620.287,4478.34
620.369,4419.45
620.452,4423.17
620.534,4430.3
620.616,4430.76
620.698,4414.35
620.781,4434.26
620.863,4396.25
620.945,4367.6
621.027,4370.35
621.11,4381.58
621.192,4419.67
621.274,4437.56
621.356,4438.13
621.438,4424.45
621.521,4434.52
621.603,4452.31
621.685,4464.73
621.767,4502.38
621.85,4508.79
621.932,4522.44
622.014,4528.05
622.096,4558.35
622.178,4610.41
622.261,4623.67
622.343,4615.67
622.425,4554.45
622.507,4559.94
622.589,4556.79
622.672,4509.98
622.754,4459.61
622.836,4440.4
622.918,4435.95
623.0,4404.11
623.083,4408.2
623.165,4413.25
623.247,4420.39
623.329,4424.45
623.411,4432.46
623.493,4391.25
623.576,4341.45
623.658,4352.7
623.74,4354.17
623.822,4361.69
623.904,4332.64
623.986,4323.42
624.069,4321.65
624.151,4326.86
624.233,4360.16
624.315,4359.73
624.397,4357.6
624.479,4357.74
624.561,4314.23
624.644,4331.64
624.726,4347.92
624.808,4353.8
624.89,4348.11
624.972,4374.11
625.054,4344.8
625.136,4377.51
625.218,4319.21
625.301,4298.39
625.383,4319.66
625.465,4320.05
625.547,4336.88
625.629,4374.48
625.711,4381.67
625.793,4397.63
625.875,4401.45
625.958,4408.21
626.04,4419.98
626.122,4443.39
626.204,4495.4
626.286,4572.79
626.368,4640.42
626.45,4784.16
626.532,4987.25
626.614,5242.51
626.696,5540.88
626.778,5684.31
626.86,5740.85
626.943,5743.06
627.025,5554.23
627.107,5319.74
627.189,5100.86
627.271,4918.61
627.353,4892.38
627.435,5025.99
627.517,5180.85
627.599,5396.54
627.681,5738.39
627.763,6172.99
627.845,6416.71
627.927,6507.0
628.009,6599.94
628.091,6668.6
628.173,6759.16
628.255,7037.84
628.338,7289.89
628.42,7504.38
628.502,7689.64
628.584,7716.86
628.666,7554.89
628.748,7254.71
628.83,7059.33
628.912,6939.04
628.994,6832.66
629.076,6668.59
629.158,6689.84
629.24,6780.14
629.322,6848.39
629.404,6836.04
629.486,6728.44
629.568,6660.8
629.65,6472.5
629.732,6217.99
629.814,6126.66
629.896,6122.5
629.978,6180.77
630.06,6158.29
630.142,6114.63
630.224,6026.29
630.306,5916.16
630.388,5746.3
630.47,5552.66
630.552,5382.88
630.634,5224.71
630.716,5154.74
630.798,5081.33
630.88,5157.48
630.961,5312.31
631.043,5434.85
631.125,5628.06
631.207,5970.41
631.289,6241.64
631.371,6304.89
631.453,6255.64
631.535,6225.66
631.617,6232.61
631.699,6160.95
631.781,6040.41
631.863,5807.35
631.945,5540.13
632.027,5303.19
632.109,5031.76
632.191,4838.42
632.273,4700.24
632.355,4587.09
632.436,4505.46
632.518,4482.01
632.6,4444.79
632.682,4406.71
632.764,4374.42
632.846,4350.45
632.928,4292.52
633.01,4229.67
633.092,4205.21
633.174,4189.35
633.256,4206.85
633.337,4235.26
633.419,4243.92
633.501,4213.83
633.583,4196.58
633.665,4216.24
633.747,4226.99
633.829,4195.38
633.911,4215.58
633.993,4160.92
