nm,Intensity
791.75,6175.5
792.024,6209.65
792.298,6094.25
792.572,5997.15
792.846,5927.3
793.12,5982.2
793.394,5969.45
793.668,5964.7
793.942,5953.3
794.215,5899.85
794.489,5894.6
794.763,5941.35
795.037,6013.3
795.311,6022.05
795.585,6024.2
795.859,5962.15
796.133,5940.95
796.407,5961.15
796.681,5926.1
796.955,5920.95
797.228,5935.65
797.502,5909.95
797.776,5845.35
798.05,5874.9
798.324,5901.55
798.598,5871.35
798.871,5813.85
799.145,5855.55
799.419,5927.55
799.693,5910.85
799.967,5893.25
800.241,5841.7
800.514,5851.95
800.788,5883.7
801.062,5824.35
801.336,5798.0
801.61,5793.9
801.883,5781.6
802.157,5786.6
802.431,5763.5
802.705,5743.25
802.978,5739.15
803.252,5769.35
803.526,5733.85
803.8,5717.55
804.073,5740.7
804.347,5711.8
804.621,5743.55
804.894,5750.0
805.168,5715.45
805.442,5721.25
805.715,5703.3
805.989,5651.3
806.263,5659.95
806.536,5620.1
806.81,5648.25
807.084,5638.4
807.357,5620.1
807.631,5592.65
807.905,5593.0
808.178,5580.25
808.452,5597.45
808.726,5612.75
808.999,5619.6
809.273,5640.85
809.546,5694.2
809.82,5773.6
810.094,5793.5
810.367,5717.0
810.641,5637.9
810.914,5610.05
811.188,5557.0
811.461,5571.75
811.735,5526.8
812.008,5544.45
812.282,5530.2
812.556,5492.55
812.829,5505.45
813.103,5506.1
813.376,5543.2
813.65,5551.3
813.923,5551.2
814.197,5502.85
814.47,5473.0
814.744,5484.85
815.017,5430.9
815.29,5456.95
815.564,5419.15
815.837,5430.35
816.111,5399.45
816.384,5404.2
816.658,5403.05
816.931,5370.9
817.205,5379.25
817.478,5395.2
817.751,5387.75
818.025,5399.6
818.298,5409.55
818.572,5442.8
818.845,5399.5
819.118,5374.2
819.392,5345.4
819.665,5353.2
819.938,5350.9
820.212,5330.0
820.485,5279.9
820.758,5292.55
821.032,5322.65
821.305,5323.5
821.578,5298.0
821.852,5265.3
822.125,5257.35
822.398,5283.9
822.672,5285.6
822.945,5320.7
823.218,5267.9
823.491,5249.95
823.765,5228.25
824.038,5233.25
824.311,5244.95
824.585,5273.65
824.858,5244.3
825.131,5232.55
825.404,5230.05
825.677,5198.8
825.951,5230.55
826.224,5203.95
826.497,5193.0
826.77,5183.35
827.043,5168.2
827.317,5168.2
827.59,5157.75
827.863,5188.9
828.136,5180.8
828.409,5216.2
828.682,5206.2
828.956,5210.4
829.229,5187.75
829.502,5148.35
829.775,5142.65
830.048,5132.2
830.321,5125.1
830.594,5139.1
830.867,5131.3
831.14,5119.15
831.413,5124.65
831.687,5108.2
831.96,5111.9
832.233,5109.9
832.506,5110.9
832.779,5080.5
833.052,5113.15
833.325,5114.1
833.598,5116.1
833.871,5070.1
834.144,5046.5
834.417,5023.95
834.69,5088.85
834.963,5066.65
835.236,5054.15
835.509,5053.65
835.782,5056.65
836.055,5069.15
836.328,5068.4
836.601,5056.1
836.874,5054.95
837.147,5179.9
837.419,5270.25
837.692,5362.8
837.965,5298.35
838.238,5194.5
838.511,5121.7
838.784,5098.65
839.057,5112.65
839.33,5116.35
839.603,5177.0
839.876,5237.35
840.148,5214.0
840.421,5161.0
840.694,5108.75
840.967,5035.85
841.24,5006.75
841.513,4974.45
841.785,4968.15
842.058,4990.55
842.331,4966.85
842.604,4941.7
842.877,4936.1
843.149,4958.7
843.422,4953.7
843.695,4968.9
843.968,4961.5
844.24,4951.15
844.513,4933.5
844.786,4932.05
845.059,4928.3
845.331,4911.2
845.604,4880.9
845.877,4907.35
846.15,4911.6
846.422,4917.75
846.695,4932.45
846.968,4927.6
847.24,4914.7
847.513,4919.7
847.786,4920.7
848.058,4918.15
848.331,4927.75
848.604,4909.85
848.876,4950.2
849.149,4951.5
849.421,4963.6
849.694,4948.8
849.967,4901.8
850.239,4879.85
850.512,4897.7
850.784,4943.7
851.057,4943.45
851.33,4946.45
851.602,4943.3
851.875,4878.25
852.147,4874.35
852.42,4877.55
852.692,4860.05
852.965,4855.1
853.237,4866.55
853.51,4873.7
853.782,4867.1
854.055,4895.65
854.327,4860.9
854.6,4865.2
854.872,4868.85
855.145,4873.9
855.417,4859.8
855.69,4812.9
855.962,4781.75
856.235,4819.3
856.507,4814.7
856.779,4811.25
857.052,4814.65
857.324,4811.15
857.597,4796.8
857.869,4797.25
858.142,4803.5
858.414,4790.65
858.686,4800.1
858.959,4791.8
859.231,4787.05
859.503,4784.2
859.776,4780.0
860.048,4759.15
860.32,4780.45
860.593,4792.55
860.865,4794.1
861.137,4804.25
861.41,4768.1
861.682,4822.25
861.954,4864.25
862.226,4909.6
862.499,4900.0
862.771,4917.75
863.043,4910.1
863.315,4894.1
863.588,4868.75
863.86,4825.9
864.132,4788.2
864.404,4792.25
864.677,4809.4
864.949,4790.5
865.221,4775.4
865.493,4769.05
865.765,4761.15
866.038,4753.75
866.31,4754.3
866.582,4764.5
866.854,4776.6
867.126,4762.2
867.398,4769.6
867.67,4778.25
867.943,4772.05
868.215,4725.95
868.487,4718.4
868.759,4732.1
869.031,4753.15
869.303,4745.4
869.575,4722.3
869.847,4708.6
870.119,4708.8
870.391,4737.65
870.663,4736.7
870.935,4705.2
871.207,4684.85
871.479,4699.3
871.751,4695.4
872.023,4713.2
872.295,4722.85
872.567,4718.75
872.839,4735.1
873.111,4723.8
873.383,4726.8
873.655,4732.0
873.927,4747.55
874.199,4731.4
874.471,4724.0
874.743,4736.0
875.015,4769.9
875.287,4810.95
875.559,4849.1
875.831,4816.4
876.103,4813.15
876.374,4782.0
876.646,4768.05
876.918,4768.75
877.19,4732.5
877.462,4720.75
877.734,4715.15
878.006,4709.05
878.277,4702.95
878.549,4691.15
878.821,4684.3
879.093,4662.25
879.365,4651.3
879.636,4643.25
879.908,4631.2
880.18,4606.15
880.452,4611.55
880.723,4609.25
880.995,4601.55
881.267,4592.05
881.539,4579.95
881.81,4581.55
882.082,4575.55
882.354,4576.2
882.626,4572.65
882.897,4572.85
883.169,4606.65
883.441,4635.55
883.712,4641.2
883.984,4632.5
884.256,4668.05
884.527,4692.45
884.799,4708.1
885.07,4745.2
885.342,4775.0
885.614,4772.65
885.885,4749.2
886.157,4715.9
886.428,4697.05
886.7,4669.85
886.972,4629.75
887.243,4583.4
887.515,4554.0
887.786,4546.75
888.058,4526.45
888.329,4498.7
888.601,4506.6
888.872,4507.8
889.144,4501.5
889.415,4494.1
889.687,4484.7
889.958,4489.15
890.23,4499.75
890.501,4495.65
890.773,4492.55
891.044,4507.1
891.316,4509.45
891.587,4496.65
891.859,4499.65
892.13,4500.8
892.401,4496.65
892.673,4471.15
892.944,4450.5
893.216,4450.3
893.487,4439.7
893.758,4431.4
894.03,4423.7
894.301,4448.4
894.572,4445.15
894.844,4411.05
895.115,4402.85
895.386,4406.6
895.658,4408.75
895.929,4425.2
896.2,4425.15
896.472,4389.85
896.743,4393.85
897.014,4400.6
897.285,4384.75
897.557,4381.85
897.828,4361.4
898.099,4386.45
898.37,4386.35
898.642,4382.85
898.913,4375.75
899.184,4370.55
899.455,4372.7
899.726,4348.55
899.998,4330.75
900.269,4333.85
900.54,4324.6
900.811,4322.25
901.082,4325.2
901.353,4329.5
901.625,4331.0
901.896,4326.55
902.167,4319.0
902.438,4311.6
902.709,4317.25
902.98,4304.5
903.251,4303.0
903.522,4310.4
903.793,4296.9
904.064,4284.55
904.335,4275.65
904.606,4294.4
904.877,4286.8
905.148,4293.15
905.419,4280.0
905.69,4270.2
905.961,4280.0
906.232,4275.8
906.503,4257.0
906.774,4242.2
907.045,4241.35
907.316,4254.2
907.587,4249.75
907.858,4248.65
908.129,4248.5
908.4,4234.7
908.671,4237.7
908.942,4234.55
909.213,4232.9
909.484,4229.85
909.755,4221.85
910.025,4220.1
910.296,4208.55
910.567,4213.35
910.838,4203.8
911.109,4222.5
911.38,4220.2
911.65,4208.15
911.921,4188.9
912.192,4195.8
912.463,4191.95
912.734,4195.85
913.004,4189.65
913.275,4177.1
913.546,4179.25
913.817,4170.3
914.087,4169.1
914.358,4173.9
914.629,4185.3
914.9,4172.75
915.17,4171.5
915.441,4165.1
915.712,4152.9
915.982,4140.0
916.253,4146.95
916.524,4150.2
916.794,4150.55
917.065,4141.4
917.336,4145.7
917.606,4143.45
917.877,4130.7
918.147,4126.95
918.418,4136.0
918.689,4137.5
918.959,4119.85
919.23,4119.6
919.5,4119.6
919.771,4115.4
920.042,4108.95
920.312,4104.7
920.583,4099.65
920.853,4100.0
921.124,4104.25
921.394,4096.65
921.665,4092.6
921.935,4091.45
922.206,4086.85
922.476,4090.45
922.747,4091.65
923.017,4087.1
923.287,4080.65
923.558,4085.0
923.828,4073.55
924.099,4069.25
924.369,4072.15
924.639,4065.5
924.91,4070.15
925.18,4066.5
925.451,4072.8
925.721,4062.45
925.991,4049.0
926.262,4049.95
926.532,4049.2
926.802,4042.0
927.073,4040.25
927.343,4042.3
927.613,4046.3
927.884,4038.75
928.154,4045.45
928.424,4041.65
928.694,4036.85
928.965,4029.55
929.235,4036.65
929.505,4030.2
929.775,4015.9
930.046,4011.4
930.316,4000.95
930.586,4001.85
930.856,4009.75
931.126,4015.8
931.397,4008.4
931.667,4007.75
931.937,4002.2
932.207,4004.7
932.477,4009.05
932.747,3995.25
933.017,3989.45
933.288,3988.25
933.558,3990.5
933.828,3995.05
934.098,3995.1
934.368,3989.95
934.638,3980.9
934.908,3974.9
935.178,3979.65
935.448,3977.7
935.718,3966.85
935.988,3964.85
936.258,3968.4
936.528,3963.45
936.798,3965.55
937.068,3967.5
937.338,3962.95
937.608,3963.8
937.878,3962.15
938.148,3962.15
938.418,3954.65
938.688,3949.0
938.958,3946.5
939.228,3946.6
939.498,3950.0
939.767,3950.65
940.037,3953.8
940.307,3950.0
940.577,3944.3
940.847,3943.85
941.117,3939.3
941.387,3943.5
941.656,3936.5
941.926,3928.0
942.196,3936.15
942.466,3932.4
942.736,3925.45
943.005,3927.7
943.275,3919.4
943.545,3917.05
943.815,3923.65
944.084,3925.4
944.354,3918.95
944.624,3918.15
944.894,3913.75
945.163,3912.1
945.433,3907.25
945.703,3904.3
945.972,3914.75
946.242,3914.3
946.512,3910.5
946.781,3912.65
947.051,3906.35
947.321,3907.15
947.59,3897.4
947.86,3901.5
948.13,3897.3
948.399,3896.0
948.669,3896.15
948.938,3889.25
949.208,3885.75
949.477,3887.55
949.747,3890.7
950.016,3892.75
950.286,3893.45
950.556,3888.35
950.825,3885.95
951.095,3885.85
951.364,3882.5
951.634,3887.05
951.903,3880.45
952.172,3872.4
952.442,3871.95
952.711,3874.95
952.981,3876.95
953.25,3874.65
953.52,3877.05
953.789,3873.0
954.058,3870.05
954.328,3867.2
954.597,3863.6
954.867,3867.1
955.136,3863.55
955.405,3865.65
955.675,3860.9
955.944,3867.0
956.213,3860.95
956.483,3863.65
956.752,3861.25
957.021,3855.6
957.29,3853.25
957.56,3859.45
957.829,3857.8
958.098,3852.75
958.367,3851.15
958.637,3855.95
958.906,3853.9
959.175,3849.65
959.444,3847.35
959.714,3840.8
959.983,3844.55
960.252,3842.45
960.521,3842.6
960.79,3844.95
961.059,3845.8
961.328,3845.2
961.598,3839.2
961.867,3844.35
962.136,3838.15
962.405,3836.75
962.674,3835.7
962.943,3835.55
963.212,3835.0
963.481,3834.5
963.75,3836.35
964.019,3831.6
964.288,3825.2
964.557,3826.85
964.826,3829.8
965.095,3827.65
965.364,3825.3
965.633,3829.15
965.902,3826.55
966.171,3825.95
966.44,3821.05
966.709,3826.75
966.978,3826.4
967.247,3814.7
967.516,3818.3
967.785,3816.35
968.054,3818.7
968.323,3818.9
968.591,3815.0
968.86,3808.6
969.129,3809.25
969.398,3808.8
969.667,3810.55
969.936,3813.75
970.204,3810.1
970.473,3814.4
970.742,3809.25
971.011,3808.8
971.28,3807.25
971.548,3805.8
971.817,3804.05
972.086,3803.6
972.355,3807.3
972.623,3807.05
972.892,3806.3
973.161,3804.3
973.429,3803.6
973.698,3800.8
973.967,3799.85
974.235,3797.1
974.504,3791.75
974.773,3794.55
975.041,3797.0
975.31,3797.95
975.579,3796.8
975.847,3792.5
976.116,3795.45
976.384,3791.35
976.653,3791.4
976.922,3788.65
977.19,3790.95
977.459,3791.55
977.727,3791.6
977.996,3793.15
978.264,3790.55
978.533,3792.9
978.801,3791.4
979.07,3790.7
979.338,3786.2
979.607,3783.15
979.875,3782.15
980.143,3783.65
980.412,3783.3
980.68,3781.9
980.949,3784.85
981.217,3780.05
981.486,3781.95
981.754,3777.1
982.022,3778.75
982.291,3777.35
982.559,3775.55
982.827,3775.7
983.096,3774.5
983.364,3777.25
983.632,3777.2
983.901,3777.9
984.169,3774.85
984.437,3778.7
984.705,3777.0
984.974,3775.1
985.242,3772.3
985.51,3775.9
985.778,3771.9
986.047,3771.15
986.315,3770.3
986.583,3768.5
986.851,3770.1
987.119,3768.65
987.388,3768.35
987.656,3766.4
987.924,3765.1
988.192,3765.15
988.46,3764.7
988.728,3766.85
988.996,3764.8
989.264,3769.5
989.533,3767.95
989.801,3768.05
990.069,3766.05
990.337,3764.9
990.605,3765.05
990.873,3765.05
991.141,3763.0
991.409,3761.85
991.677,3767.65
991.945,3762.9
992.213,3764.05
992.481,3762.2
992.749,3760.8
993.017,3760.2
993.285,3761.15
993.553,3757.6
993.82,3760.3
994.088,3760.35
994.356,3756.3
994.624,3756.55
994.892,3757.65
995.16,3759.2
995.428,3758.7
995.696,3756.3
995.963,3759.3
996.231,3760.2
996.499,3760.75
996.767,3762.35
997.035,3759.45
997.302,3757.95
997.57,3757.5
997.838,3757.75
998.106,3758.4
998.373,3754.75
998.641,3756.25
998.909,3755.0
999.177,3751.9
999.444,3755.3
999.712,3753.1
999.98,3751.3
1000.25,3753.05
1000.51,3749.9
1000.78,3748.35
1001.05,3746.55
1001.32,3744.9
1001.59,3746.3
1001.85,3743.25
1002.12,3744.25
1002.39,3746.45
1002.66,3744.2
1002.92,3746.7
1003.19,3746.4
1003.46,3744.55
1003.73,3741.6
1003.99,3741.1
1004.26,3740.6
1004.53,3742.75
1004.8,3741.55
1005.06,3740.7
1005.33,3744.0
1005.6,3742.75
1005.87,3741.5
1006.13,3740.8
1006.4,3740.85
1006.67,3740.9
1006.94,3742.45
1007.2,3744.8
1007.47,3745.25
1007.74,3745.25
1008.0,3750.6
1008.27,3755.3
1008.54,3755.7
1008.81,3761.65
1009.07,3764.15
1009.34,3764.25
1009.61,3766.9
1009.88,3768.15
1010.14,3772.5
1010.41,3774.55
1010.68,3776.3
1010.95,3775.15
1011.21,3780.55
1011.48,3777.55
1011.75,3779.0
1012.01,3781.65
1012.28,3786.6
1012.55,3792.2
1012.82,3795.05
1013.08,3796.4
1013.35,3803.6
1013.62,3801.7
1013.88,3801.35
1014.15,3799.25
1014.42,3796.75
1014.69,3799.2
1014.95,3798.65
1015.22,3797.1
1015.49,3792.5
1015.75,3791.85
1016.02,3788.4
1016.29,3784.45
1016.55,3779.9
1016.82,3777.1
1017.09,3774.85
1017.36,3773.05
1017.62,3772.15
1017.89,3769.25
1018.16,3768.55
1018.42,3765.3
1018.69,3760.2
1018.96,3759.0
1019.22,3756.6
1019.49,3754.85
1019.76,3748.5
1020.02,3750.4
1020.29,3749.75
1020.56,3749.6
1020.83,3748.55
1021.09,3748.75
1021.36,3746.95
1021.63,3745.2
1021.89,3747.6
1022.16,3745.2
1022.43,3746.65
1022.69,3742.45
1022.96,3738.85
1023.23,3738.8
1023.49,3734.55
1023.76,3732.4
1024.03,3729.15
1024.29,3727.75
1024.56,3726.2
1024.83,3726.1
1025.09,3725.3
1025.36,3722.9
1025.63,3723.5
1025.89,3721.35
1026.16,3720.1
1026.43,3721.15
1026.69,3718.95
1026.96,3719.1
1027.23,3718.65
1027.49,3719.25
1027.76,3718.9
1028.03,3717.5
1028.29,3719.85
1028.56,3718.15
1028.83,3717.0
1029.09,3717.25
1029.36,3716.05
1029.62,3715.55
1029.89,3716.7
1030.16,3714.8
1030.42,3715.8
1030.69,3715.35
1030.96,3714.95
1031.22,3713.95
1031.49,3715.15
1031.76,3714.85
1032.02,3716.25
1032.29,3714.35
1032.56,3714.8
1032.82,3714.4
1033.09,3714.5
1033.35,3713.85
1033.62,3715.45
1033.89,3714.5
1034.15,3714.95
1034.42,3715.75
1034.69,3714.45
1034.95,3714.45
1035.22,3714.0
1035.48,3713.2
1035.75,3712.45
1036.02,3713.95
1036.28,3712.4
1036.55,3713.55
1036.81,3712.85
1037.08,3714.45
1037.35,3712.4
1037.61,3713.25
1037.88,3713.8
1038.15,3711.5
1038.41,3710.95
1038.68,3712.45
1038.94,3712.0
1039.21,3712.7
1039.48,3712.15
1039.74,3711.2
1040.01,3711.3
1040.27,3711.1
1040.54,3712.65
1040.81,3711.2
1041.07,3710.45
1041.34,3710.55
1041.6,3711.1
1041.87,3710.8
1042.14,3709.95
1042.4,3711.2
1042.67,3711.75
1042.93,3710.15
1043.2,3710.35
1043.47,3709.85
1043.73,3710.5
1044.0,3709.4
1044.26,3710.75
1044.53,3710.0
1044.79,3709.45
1045.06,3710.15
1045.33,3709.6
1045.59,3707.35
1045.86,3710.4
1046.12,3710.1
1046.39,3709.8
1046.65,3709.5
1046.92,3709.65
1047.19,3709.1
1047.45,3709.3
1047.72,3708.8
1047.98,3709.3
1048.25,3708.75
1048.51,3708.8
1048.78,3708.45
1049.05,3709.6
1049.31,3709.7
1049.58,3708.7
1049.84,3709.65
1050.11,3707.7
1050.37,3709.0
1050.64,3709.1
1050.91,3708.8
1051.17,3709.15
1051.44,3708.4
1051.7,3707.9
1051.97,3708.55
1052.23,3709.3
1052.5,3708.7
1052.76,3710.1
1053.03,3706.95
1053.29,3709.0
1053.56,3709.7
1053.83,3708.05
1054.09,3709.1
1054.36,3708.1
1054.62,3710.15
1054.89,3707.85
1055.15,3709.2
1055.42,3711.1
1055.68,3709.0
1055.95,3707.25
1056.21,3709.95
1056.48,3707.2
1056.74,3707.9
1057.01,3709.2
1057.27,3707.9
1057.54,3707.85
1057.81,3707.2
1058.07,3706.85
1058.34,3706.3
1058.6,3707.45
1058.87,3705.6
1059.13,3707.55
1059.4,3707.05
1059.66,3708.35
1059.93,3707.7
1060.19,3707.2
1060.46,3707.75
1060.72,3708.5
1060.99,3707.4
1061.25,3708.15
1061.52,3706.7
1061.78,3708.8
1062.05,3707.7
1062.31,3707.5
1062.58,3707.35
1062.84,3708.15
1063.11,3706.5
1063.37,3708.45
1063.64,3706.55
1063.9,3707.25
1064.17,3707.05
1064.43,3706.4
1064.7,3705.85
1064.96,3707.0
1065.23,3707.35
1065.49,3706.85
1065.76,3707.05
1066.02,3707.05
1066.29,3706.5
1066.55,3708.05
1066.82,3706.6
1067.08,3706.9
1067.35,3705.85
1067.61,3705.15
1067.88,3705.9
