cm-1,Intensity
-123.878,1854.65
-120.866,1853.95
-117.855,1854.45
-114.845,1855.7
-111.836,1854.3
-108.828,1855.8
-105.821,1855.5
-102.815,1854.5
-99.8104,1853.85
-96.8065,1854.55
-93.8036,1855.0
-90.8016,1855.5
-87.8007,1854.55
-84.8008,1853.9
-81.8019,1853.7
-78.8039,1854.55
-75.807,1854.4
-72.8111,1853.65
-69.8161,1854.15
-66.8222,1854.35
-63.8293,1855.25
-60.8373,1854.1
-57.8464,1854.3
-54.8564,1854.25
-51.8675,1854.15
-48.8795,1855.55
-45.8926,1854.1
-42.9066,1854.75
-39.9216,1855.65
-36.9377,1854.75
-33.9547,1854.5
-30.9727,1857.55
-27.9917,1855.85
-25.0117,1857.25
-22.0326,1859.35
-19.0546,1861.05
-16.0776,1874.8
-13.1015,1937.55
-10.1265,2159.9
-7.1524,2502.7
-4.17932,2824.15
-1.20723,2975.2
1.76388,2791.25
4.734,2298.1
7.70313,1954.75
10.6713,1863.45
13.6384,1856.05
16.6046,1854.6
19.5698,1857.5
22.534,1854.6
25.4972,1855.1
28.4595,1854.05
31.4207,1856.8
34.381,1853.8
37.3403,1854.9
40.2986,1855.25
43.256,1855.45
46.2123,1856.7
49.1677,1862.75
52.1221,1874.8
55.0755,1903.55
58.0279,1934.3
60.9794,1969.6
63.9299,1988.15
66.8794,2003.7
69.8279,2017.6
72.7754,2021.35
75.722,2025.45
78.6676,2014.05
81.6122,2024.75
84.5559,2026.0
87.4985,2031.3
90.4402,2037.4
93.381,2041.75
96.3207,2048.65
99.2595,2050.05
102.197,2054.0
105.134,2053.75
108.07,2047.55
111.005,2044.8
113.939,2038.75
116.872,2026.05
119.804,2023.0
122.735,2022.25
125.665,2014.8
128.594,2011.0
131.522,2011.5
134.449,2009.1
137.375,2009.1
140.301,2009.9
143.225,2000.4
146.148,1997.6
149.07,1999.4
151.992,2010.4
154.912,2009.75
157.832,2003.75
160.75,2016.1
163.668,2017.1
166.584,2018.1
169.5,2015.7
172.414,2023.85
175.328,2024.9
178.241,2014.75
181.153,2016.75
184.063,2015.1
186.973,2011.95
189.882,2011.85
192.79,2009.65
195.697,2010.2
198.603,2015.6
201.508,2010.6
204.412,2009.5
207.315,2009.7
210.217,2014.0
213.119,2007.95
216.019,2000.6
218.918,2009.15
221.816,2012.6
224.714,2012.75
227.61,2012.4
230.506,2015.0
233.4,2018.45
236.294,2018.9
239.187,2027.2
242.078,2021.85
244.969,2024.5
247.859,2027.3
250.748,2032.0
253.636,2017.45
256.523,2024.1
259.409,2022.25
262.294,2015.0
265.178,2011.65
268.061,2015.3
270.943,2019.35
273.824,2016.0
276.705,2017.1
279.584,2020.05
282.463,2013.75
285.34,2015.15
288.217,2020.95
291.092,2021.55
293.967,2025.2
296.841,2031.55
299.713,2025.0
302.585,2024.6
305.456,2039.25
308.326,2045.85
311.195,2039.5
314.063,2036.55
316.93,2041.5
319.797,2045.5
322.662,2043.7
325.526,2045.7
328.389,2055.75
331.252,2054.25
334.113,2050.4
336.974,2045.0
339.834,2042.0
342.692,2050.65
345.55,2057.55
348.407,2050.6
351.263,2056.65
354.118,2052.5
356.972,2048.1
359.825,2050.3
362.677,2063.45
365.529,2062.8
368.379,2065.7
371.228,2061.5
374.077,2074.75
376.924,2082.9
379.771,2081.2
382.616,2081.7
385.461,2071.0
388.305,2075.2
391.148,2087.2
393.99,2088.95
396.831,2098.7
399.671,2093.85
402.51,2088.65
405.348,2075.85
408.186,2070.1
411.022,2067.9
413.858,2063.5
416.692,2062.75
419.526,2061.6
422.359,2059.5
425.19,2062.45
428.021,2069.1
430.851,2077.4
433.68,2080.8
436.508,2071.95
439.335,2073.4
442.162,2077.2
444.987,2083.3
447.811,2081.95
450.635,2088.15
453.458,2090.1
456.279,2084.05
459.1,2085.2
461.92,2084.15
464.739,2071.3
467.557,2068.05
470.374,2071.5
473.19,2061.2
476.005,2059.05
478.82,2058.75
481.633,2059.85
484.445,2056.05
487.257,2062.15
490.068,2063.85
492.878,2063.6
495.686,2065.4
498.494,2066.2
501.301,2061.75
504.107,2066.8
506.913,2074.3
509.717,2069.3
512.52,2072.75
515.323,2068.1
518.124,2060.6
520.925,2073.95
523.725,2080.95
526.524,2078.65
529.322,2070.55
532.119,2071.85
534.915,2070.3
537.71,2058.85
540.504,2059.5
543.298,2062.2
546.09,2059.3
548.882,2054.3
551.673,2064.3
554.462,2060.1
557.251,2065.6
560.039,2060.0
562.826,2061.35
565.613,2057.05
568.398,2067.45
571.182,2056.6
573.966,2065.5
576.748,2062.4
579.53,2064.95
582.311,2064.85
585.091,2057.25
587.87,2058.15
590.648,2048.95
593.425,2061.45
596.201,2064.05
598.977,2065.45
601.751,2056.65
604.525,2059.3
607.298,2059.65
610.069,2052.4
612.84,2062.65
615.61,2059.25
618.38,2063.75
621.148,2057.9
623.915,2057.35
626.682,2055.75
629.447,2065.5
632.212,2059.9
634.976,2060.3
637.739,2066.5
640.501,2067.2
643.262,2067.65
646.022,2064.1
648.781,2068.15
651.54,2065.0
654.297,2059.6
657.054,2062.9
659.81,2062.75
662.565,2073.2
665.319,2064.6
668.072,2070.55
670.824,2071.9
673.575,2071.15
676.326,2068.2
679.075,2067.9
681.824,2060.15
684.572,2069.25
687.319,2066.25
690.065,2074.85
692.81,2063.4
695.554,2060.95
698.298,2059.45
701.04,2061.7
703.782,2065.25
706.522,2068.55
709.262,2068.3
712.001,2067.85
714.739,2067.8
717.477,2062.2
720.213,2069.65
722.948,2067.7
725.683,2065.65
728.417,2073.05
731.15,2073.6
733.882,2064.85
736.613,2065.2
739.343,2073.0
742.072,2070.45
744.801,2071.1
747.528,2075.25
750.255,2071.65
752.981,2073.0
755.706,2080.5
758.43,2076.05
761.153,2089.35
763.875,2083.8
766.597,2076.35
769.317,2078.7
772.037,2080.3
774.756,2077.25
777.474,2076.85
780.191,2080.8
782.907,2085.05
785.623,2082.1
788.337,2074.0
791.051,2088.8
793.764,2095.6
796.475,2096.0
799.186,2111.9
801.897,2131.55
804.606,2161.9
807.314,2189.95
810.022,2185.3
812.729,2177.55
815.434,2145.65
818.139,2118.45
820.844,2109.8
823.547,2109.5
826.249,2105.4
828.951,2120.75
831.651,2115.95
834.351,2136.0
837.05,2150.65
839.748,2161.3
842.445,2166.35
845.142,2149.7
847.837,2132.2
850.532,2111.15
853.225,2103.05
855.918,2103.55
858.61,2094.85
861.302,2108.3
863.992,2096.25
866.681,2099.3
869.37,2103.5
872.058,2099.25
874.745,2099.4
877.431,2103.7
880.116,2113.7
882.8,2112.5
885.484,2109.65
888.166,2098.4
890.848,2117.8
893.529,2124.7
896.209,2129.1
898.888,2134.4
901.566,2127.6
904.244,2124.8
906.921,2122.5
909.596,2113.5
912.271,2106.05
914.945,2112.6
917.619,2108.85
920.291,2105.95
922.963,2098.65
925.633,2099.9
928.303,2110.3
930.972,2107.35
933.64,2118.5
936.308,2119.35
938.974,2120.2
941.64,2116.05
944.304,2110.95
946.968,2110.2
949.631,2116.05
952.294,2114.6
954.955,2123.8
957.615,2121.95
960.275,2121.7
962.934,2128.55
965.592,2137.05
968.249,2154.35
970.905,2173.75
973.561,2171.35
976.215,2176.3
978.869,2148.35
981.522,2139.55
984.174,2120.9
986.826,2129.8
989.476,2137.25
992.126,2150.9
994.774,2150.2
997.422,2161.6
1000.07,2155.85
1002.72,2145.0
1005.36,2142.15
1008.01,2134.5
1010.65,2133.7
1013.29,2129.15
1015.93,2134.15
1018.58,2150.15
1021.22,2141.2
1023.86,2144.6
1026.49,2142.0
1029.13,2161.5
1031.77,2156.65
1034.4,2171.4
1037.04,2169.25
1039.67,2169.65
1042.31,2170.85
1044.94,2168.15
1047.57,2158.05
1050.2,2164.2
1052.83,2152.7
1055.46,2156.95
1058.09,2170.65
1060.72,2161.55
1063.35,2160.2
1065.97,2165.85
1068.6,2163.1
1071.22,2167.05
1073.85,2179.65
1076.47,2189.0
1079.09,2197.05
1081.71,2201.25
1084.33,2225.8
1086.95,2253.15
1089.57,2268.5
1092.19,2276.1
1094.81,2279.95
1097.42,2275.2
1100.04,2249.95
1102.65,2267.05
1105.27,2241.75
1107.88,2224.25
1110.49,2219.1
1113.1,2222.85
1115.71,2227.5
1118.32,2235.75
1120.93,2231.05
1123.54,2230.95
1126.15,2218.55
1128.75,2204.9
1131.36,2203.75
1133.97,2190.6
1136.57,2195.45
1139.17,2187.9
1141.77,2193.6
1144.38,2198.25
1146.98,2212.3
1149.58,2226.75
1152.18,2234.2
1154.77,2228.7
1157.37,2232.95
1159.97,2211.15
1162.56,2205.55
1165.16,2205.2
1167.75,2210.35
1170.35,2192.1
1172.94,2181.25
1175.53,2164.5
1178.12,2153.8
1180.71,2138.9
1183.3,2154.25
1185.89,2150.05
1188.48,2141.05
1191.06,2140.15
1193.65,2142.8
1196.23,2138.25
1198.82,2144.6
1201.4,2146.9
1203.99,2146.3
1206.57,2147.65
1209.15,2151.15
1211.73,2152.35
1214.31,2162.7
1216.89,2167.0
1219.46,2166.5
1222.04,2176.45
1224.62,2171.85
1227.19,2158.65
1229.77,2149.65
1232.34,2157.25
1234.92,2154.2
1237.49,2153.95
1240.06,2145.9
1242.63,2147.8
1245.2,2147.1
1247.77,2157.2
1250.34,2166.85
1252.9,2155.3
1255.47,2174.3
1258.04,2169.35
1260.6,2166.55
1263.17,2163.5
1265.73,2160.65
1268.29,2158.1
1270.85,2154.6
1273.41,2146.7
1275.97,2155.65
1278.53,2150.9
1281.09,2158.65
1283.65,2168.8
1286.21,2167.65
1288.76,2173.75
1291.32,2170.35
1293.87,2183.8
1296.43,2179.45
1298.98,2178.55
1301.53,2185.75
1304.08,2194.25
1306.63,2187.45
1309.18,2185.25
1311.73,2189.7
1314.28,2191.25
1316.83,2199.5
1319.38,2210.75
1321.92,2224.45
1324.47,2245.2
1327.01,2265.9
1329.55,2271.95
1332.1,2275.75
1334.64,2262.2
1337.18,2249.4
1339.72,2230.1
1342.26,2224.9
1344.8,2209.35
1347.34,2203.95
1349.87,2201.25
1352.41,2208.6
1354.95,2206.55
1357.48,2220.0
1360.01,2226.25
1362.55,2224.15
1365.08,2228.6
1367.61,2219.75
1370.14,2225.95
1372.67,2208.6
1375.2,2219.7
1377.73,2222.6
1380.26,2227.3
1382.78,2214.2
1385.31,2217.0
1387.84,2198.55
1390.36,2184.45
1392.88,2184.8
1395.41,2188.8
1397.93,2189.15
1400.45,2187.05
1402.97,2181.35
1405.49,2190.05
1408.01,2193.55
1410.53,2181.95
1413.05,2189.3
1415.56,2185.35
1418.08,2184.8
1420.59,2183.25
1423.11,2179.55
1425.62,2188.65
1428.14,2205.85
1430.65,2211.0
1433.16,2221.65
1435.67,2213.85
1438.18,2213.85
1440.69,2218.25
1443.2,2215.55
1445.7,2229.65
1448.21,2241.05
1450.72,2259.8
1453.22,2277.45
1455.72,2296.0
1458.23,2322.15
1460.73,2304.8
1463.23,2292.8
1465.73,2265.5
1468.23,2250.3
1470.73,2224.65
1473.23,2199.65
1475.73,2185.55
1478.23,2185.85
1480.72,2174.85
1483.22,2174.65
1485.72,2174.3
1488.21,2166.3
1490.7,2168.1
1493.2,2166.5
1495.69,2162.65
1498.18,2160.8
1500.67,2160.0
1503.16,2152.75
1505.65,2166.85
1508.14,2148.6
1510.62,2166.25
1513.11,2155.4
1515.59,2159.95
1518.08,2163.1
1520.56,2162.6
1523.05,2159.25
1525.53,2164.15
1528.01,2163.9
1530.49,2161.3
1532.97,2167.95
1535.45,2168.85
1537.93,2173.15
1540.41,2163.0
1542.89,2171.05
1545.36,2161.85
1547.84,2164.15
1550.31,2173.75
1552.79,2169.6
1555.26,2170.75
1557.73,2170.6
1560.21,2172.75
1562.68,2161.7
1565.15,2167.55
1567.62,2174.7
1570.09,2178.1
1572.56,2173.05
1575.02,2174.15
1577.49,2177.55
1579.95,2173.1
1582.42,2169.85
1584.88,2172.05
1587.35,2179.55
1589.81,2176.15
1592.27,2182.2
1594.73,2183.0
1597.19,2179.35
1599.65,2173.15
1602.11,2174.55
1604.57,2172.55
1607.03,2182.4
1609.49,2181.3
1611.94,2180.45
1614.4,2174.6
1616.85,2180.55
1619.31,2180.65
1621.76,2182.65
1624.21,2186.55
1626.66,2186.75
1629.11,2182.2
1631.56,2181.2
1634.01,2184.75
1636.46,2189.1
1638.91,2189.3
1641.36,2178.9
1643.8,2176.9
1646.25,2187.05
1648.69,2187.85
1651.14,2182.25
1653.58,2199.75
1656.02,2185.15
1658.46,2186.5
1660.9,2177.75
1663.35,2180.75
1665.78,2179.7
1668.22,2180.7
1670.66,2196.2
1673.1,2190.35
1675.54,2191.85
1677.97,2189.4
1680.41,2185.0
1682.84,2189.2
1685.27,2188.3
1687.71,2185.75
1690.14,2186.2
1692.57,2188.05
1695.0,2192.2
1697.43,2192.5
1699.86,2179.55
1702.29,2196.1
1704.71,2179.95
1707.14,2191.5
1709.57,2180.3
1711.99,2180.85
1714.42,2179.45
1716.84,2183.3
1719.26,2182.55
1721.69,2186.3
1724.11,2181.8
1726.53,2193.0
1728.95,2191.5
1731.37,2195.8
1733.79,2186.3
1736.21,2188.6
1738.62,2185.05
1741.04,2189.4
1743.46,2192.0
1745.87,2189.85
1748.28,2193.5
1750.7,2190.8
1753.11,2184.3
1755.52,2191.8
1757.93,2198.1
1760.34,2198.8
1762.75,2192.65
1765.16,2196.9
1767.57,2197.95
1769.98,2197.45
1772.39,2197.65
1774.79,2206.2
1777.2,2210.35
1779.6,2209.5
1782.01,2201.6
1784.41,2185.75
1786.81,2194.8
1789.21,2202.75
1791.62,2201.95
1794.02,2198.85
1796.41,2198.7
1798.81,2194.7
1801.21,2192.85
1803.61,2194.95
1806.01,2198.5
1808.4,2193.2
1810.8,2189.4
1813.19,2182.5
1815.59,2189.1
1817.98,2185.6
1820.37,2187.25
1822.76,2191.3
1825.15,2194.85
1827.54,2184.8
1829.93,2186.25
1832.32,2185.6
1834.71,2188.05
1837.1,2191.0
1839.48,2189.2
1841.87,2187.85
1844.25,2192.75
1846.64,2196.85
1849.02,2205.75
1851.4,2195.65
1853.79,2208.25
1856.17,2192.3
1858.55,2190.5
1860.93,2194.15
1863.31,2193.2
1865.69,2191.05
1868.06,2196.0
1870.44,2195.85
1872.82,2193.75
1875.19,2204.85
1877.57,2199.35
1879.94,2205.15
1882.31,2208.9
1884.69,2207.0
1887.06,2213.25
1889.43,2201.85
1891.8,2197.6
1894.17,2195.55
1896.54,2206.3
1898.91,2208.4
1901.28,2219.7
1903.64,2213.4
1906.01,2199.55
1908.38,2198.4
1910.74,2199.2
1913.1,2210.55
1915.47,2209.6
1917.83,2202.05
1920.19,2205.85
1922.55,2202.6
1924.91,2201.95
1927.27,2203.45
1929.63,2209.95
1931.99,2210.85
1934.35,2205.7
1936.71,2195.75
1939.06,2206.7
1941.42,2210.7
1943.77,2203.65
1946.13,2195.25
1948.48,2212.05
1950.83,2208.5
1953.19,2218.05
1955.54,2198.15
1957.89,2194.85
1960.24,2202.0
1962.59,2193.25
1964.93,2191.65
1967.28,2203.15
1969.63,2213.0
1971.98,2196.7
1974.32,2206.6
1976.67,2209.35
1979.01,2201.85
1981.35,2207.6
1983.7,2205.4
1986.04,2210.75
1988.38,2195.25
1990.72,2208.45
1993.06,2205.05
1995.4,2206.6
1997.74,2210.5
2000.08,2212.15
2002.41,2214.65
2004.75,2203.3
2007.09,2195.75
2009.42,2204.45
2011.75,2208.85
2014.09,2215.4
2016.42,2214.8
2018.75,2201.1
2021.08,2211.75
2023.42,2208.55
2025.75,2218.6
2028.08,2204.95
2030.4,2209.5
2032.73,2215.0
2035.06,2214.85
2037.39,2216.45
2039.71,2212.0
2042.04,2212.3
2044.36,2208.5
2046.69,2210.2
2049.01,2214.3
2051.33,2216.1
2053.65,2211.75
2055.97,2210.95
2058.29,2207.05
2060.61,2212.2
2062.93,2207.1
2065.25,2201.85
2067.57,2214.0
2069.88,2216.35
2072.2,2208.55
2074.52,2198.65
2076.83,2202.0
2079.15,2212.65
2081.46,2217.05
2083.77,2205.2
2086.08,2200.5
2088.39,2206.4
2090.7,2205.85
2093.01,2208.75
2095.32,2203.05
2097.63,2197.3
2099.94,2198.35
2102.25,2201.15
2104.55,2207.05
2106.86,2211.1
2109.16,2215.3
2111.47,2215.8
2113.77,2207.25
2116.08,2204.75
2118.38,2201.7
2120.68,2206.05
2122.98,2200.1
2125.28,2211.55
2127.58,2207.35
2129.88,2208.7
2132.18,2204.45
2134.47,2204.95
2136.77,2200.9
2139.07,2201.45
2141.36,2207.55
2143.66,2208.75
2145.95,2197.9
2148.24,2197.2
2150.54,2206.2
2152.83,2201.5
2155.12,2201.85
2157.41,2210.9
2159.7,2198.65
2161.99,2208.5
2164.28,2208.5
2166.57,2212.6
2168.85,2195.55
2171.14,2199.5
2173.43,2202.15
2175.71,2210.25
2178.0,2194.15
2180.28,2190.35
2182.56,2193.6
2184.84,2190.8
2187.13,2199.05
2189.41,2202.2
2191.69,2206.5
2193.97,2197.05
2196.25,2205.1
2198.52,2199.6
2200.8,2204.25
2203.08,2189.85
2205.36,2203.55
2207.63,2199.1
2209.91,2200.35
2212.18,2202.6
2214.45,2195.2
2216.73,2205.65
2219.0,2198.6
2221.27,2200.35
2223.54,2197.05
2225.81,2203.95
2228.08,2194.6
2230.35,2182.35
2232.62,2202.7
2234.89,2208.8
2237.15,2196.05
2239.42,2193.35
2241.68,2193.15
2243.95,2208.4
2246.21,2204.35
2248.48,2194.85
2250.74,2198.35
2253.0,2194.0
2255.26,2196.2
2257.52,2198.25
2259.78,2195.65
2262.04,2187.9
2264.3,2193.5
2266.56,2204.85
2268.82,2205.35
2271.07,2194.5
2273.33,2200.5
2275.58,2187.45
2277.84,2185.25
2280.09,2176.05
2282.35,2184.3
2284.6,2196.25
2286.85,2197.55
2289.1,2191.85
2291.35,2199.9
2293.6,2194.35
2295.85,2197.75
2298.1,2196.75
2300.35,2189.5
2302.6,2196.8
2304.84,2191.3
2307.09,2202.8
2309.33,2196.1
2311.58,2180.45
2313.82,2189.5
2316.07,2193.5
2318.31,2194.4
2320.55,2200.05
2322.79,2192.05
2325.03,2184.0
2327.27,2186.6
2329.51,2195.0
2331.75,2190.1
2333.99,2195.7
2336.23,2182.65
2338.46,2179.5
2340.7,2188.05
2342.93,2183.7
2345.17,2186.2
2347.4,2196.45
2349.64,2192.2
2351.87,2189.0
2354.1,2184.45
2356.33,2180.95
2358.56,2189.45
2360.79,2189.6
2363.02,2192.95
2365.25,2185.5
2367.48,2192.15
2369.71,2195.4
2371.93,2183.15
2374.16,2179.5
2376.38,2179.9
2378.61,2185.3
2380.83,2185.95
2383.06,2179.5
2385.28,2177.6
2387.5,2187.4
2389.72,2181.9
2391.94,2184.25
2394.16,2178.85
2396.38,2178.5
2398.6,2186.9
2400.82,2193.6
2403.04,2190.55
2405.26,2192.45
2407.47,2188.65
2409.69,2190.15
2411.9,2183.45
2414.12,2179.25
2416.33,2190.2
2418.54,2193.25
2420.76,2189.2
2422.97,2188.7
2425.18,2187.8
2427.39,2179.4
2429.6,2186.15
2431.81,2186.55
2434.02,2187.4
2436.22,2185.35
2438.43,2184.6
2440.64,2179.6
2442.84,2181.9
2445.05,2189.55
2447.25,2181.05
2449.46,2180.25
2451.66,2174.9
2453.86,2180.8
2456.06,2177.2
2458.27,2176.0
2460.47,2184.75
2462.67,2178.1
2464.87,2179.5
2467.06,2178.0
2469.26,2175.4
2471.46,2181.4
2473.66,2181.2
2475.85,2185.8
2478.05,2182.25
2480.24,2174.8
2482.44,2183.4
2484.63,2179.55
2486.82,2173.25
2489.02,2174.6
2491.21,2174.85
2493.4,2178.7
2495.59,2180.35
2497.78,2182.4
2499.97,2179.55
2502.16,2171.05
2504.34,2182.15
2506.53,2170.95
2508.72,2183.5
2510.9,2184.2
2513.09,2171.85
2515.27,2184.6
2517.46,2179.95
2519.64,2188.3
2521.82,2179.45
2524.0,2176.9
2526.19,2182.6
2528.37,2177.4
2530.55,2176.75
2532.73,2183.25
2534.9,2192.7
2537.08,2175.9
2539.26,2175.25
2541.44,2177.65
2543.61,2177.9
2545.79,2172.6
2547.96,2193.05
2550.14,2183.1
2552.31,2179.85
2554.48,2173.6
2556.66,2177.15
2558.83,2176.5
2561.0,2171.05
2563.17,2177.85
2565.34,2178.45
2567.51,2180.5
2569.68,2175.05
2571.85,2172.2
2574.01,2171.25
2576.18,2161.35
2578.35,2175.95
2580.51,2177.75
2582.68,2179.35
2584.84,2180.7
2587.0,2183.1
2589.17,2171.4
2591.33,2171.05
2593.49,2175.15
2595.65,2179.05
2597.81,2182.75
2599.97,2180.85
2602.13,2182.5
2604.29,2182.7
2606.45,2186.35
2608.6,2183.4
2610.76,2174.0
2612.92,2175.3
2615.07,2183.85
2617.23,2187.85
2619.38,2175.55
2621.53,2179.15
2623.69,2178.85
2625.84,2180.75
2627.99,2182.05
2630.14,2176.4
2632.29,2180.75
2634.44,2181.0
2636.59,2169.45
2638.74,2175.45
2640.89,2175.4
2643.03,2181.0
2645.18,2186.15
2647.33,2196.35
2649.47,2194.3
2651.62,2185.15
2653.76,2185.85
2655.9,2202.25
2658.05,2196.35
2660.19,2183.8
2662.33,2194.65
2664.47,2188.7
2666.61,2195.45
2668.75,2191.45
2670.89,2183.2
2673.03,2187.85
2675.17,2188.4
2677.3,2180.35
2679.44,2189.6
2681.58,2190.75
2683.71,2188.45
2685.84,2175.0
2687.98,2187.05
2690.11,2187.2
2692.25,2185.45
2694.38,2201.7
2696.51,2197.25
2698.64,2193.05
2700.77,2193.05
2702.9,2194.15
2705.03,2207.95
2707.16,2212.6
2709.29,2209.7
2711.41,2208.75
2713.54,2217.1
2715.67,2218.35
2717.79,2216.1
2719.92,2224.7
2722.04,2221.2
2724.16,2236.9
2726.29,2232.7
2728.41,2223.15
2730.53,2224.7
2732.65,2219.0
2734.77,2212.65
2736.89,2205.7
2739.01,2198.25
2741.13,2191.55
2743.25,2213.95
2745.36,2200.05
2747.48,2196.4
2749.6,2205.1
2751.71,2200.4
2753.83,2198.8
2755.94,2182.25
2758.06,2191.25
2760.17,2195.15
2762.28,2185.9
2764.39,2200.35
2766.5,2202.5
2768.61,2202.55
2770.72,2198.2
2772.83,2189.5
2774.94,2197.25
2777.05,2192.55
2779.16,2197.15
2781.27,2196.05
2783.37,2191.55
2785.48,2192.3
2787.58,2191.0
2789.69,2192.75
2791.79,2193.2
2793.89,2190.6
2796.0,2197.6
2798.1,2200.8
2800.2,2204.75
2802.3,2201.2
2804.4,2192.2
2806.5,2206.5
2808.6,2199.65
2810.7,2204.8
2812.8,2207.8
2814.89,2217.55
2816.99,2218.4
2819.09,2226.35
2821.18,2235.85
2823.28,2245.9
2825.37,2266.3
2827.46,2271.3
2829.56,2316.1
2831.65,2325.2
2833.74,2364.75
2835.83,2405.9
2837.92,2446.5
2840.01,2463.6
2842.1,2465.4
2844.19,2450.1
2846.28,2434.45
2848.37,2395.1
2850.45,2369.6
2852.54,2360.4
2854.63,2378.15
2856.71,2396.2
2858.8,2413.4
2860.88,2463.1
2862.96,2538.3
2865.05,2603.7
2867.13,2671.65
2869.21,2704.85
2871.29,2740.1
2873.37,2735.35
2875.45,2776.45
2877.53,2811.35
2879.61,2838.95
2881.69,2881.0
2883.76,2881.05
2885.84,2898.85
2887.92,2936.25
2889.99,2888.0
2892.07,2850.5
2894.14,2834.45
2896.22,2827.4
2898.29,2808.35
2900.36,2794.9
2902.43,2810.45
2904.5,2807.7
2906.58,2765.45
2908.65,2756.15
2910.72,2737.25
2912.78,2682.4
2914.85,2651.75
2916.92,2633.85
2918.99,2630.3
2921.05,2642.15
2923.12,2611.6
2925.19,2614.4
2927.25,2579.4
2929.32,2581.15
2931.38,2566.1
2933.44,2547.05
2935.5,2487.05
2937.57,2452.05
2939.63,2448.4
2941.69,2440.7
2943.75,2474.55
2945.81,2487.6
2947.87,2502.15
2949.93,2545.4
2951.98,2557.35
2954.04,2566.95
2956.1,2605.55
2958.15,2585.3
2960.21,2572.55
2962.26,2548.9
2964.32,2549.05
2966.37,2534.8
2968.42,2503.9
2970.48,2460.9
2972.53,2437.55
2974.58,2379.8
2976.63,2331.5
2978.68,2286.6
2980.73,2285.15
2982.78,2271.05
2984.83,2256.65
2986.87,2249.1
2988.92,2246.25
2990.97,2235.55
2993.01,2229.45
2995.06,2211.55
2997.1,2195.85
2999.15,2205.65
3001.19,2194.55
3003.24,2194.7
3005.28,2194.25
3007.32,2194.35
3009.36,2194.4
3011.4,2179.9
3013.44,2184.55
3015.48,2174.15
3017.52,2180.0
3019.56,2179.0
3021.6,2175.55
3023.63,2166.7
3025.67,2178.35
3027.71,2175.3
3029.74,2167.85
3031.78,2164.7
3033.81,2167.75
3035.85,2165.85
3037.88,2160.5
3039.91,2166.6
3041.94,2167.4
3043.97,2163.15
3046.01,2162.4
3048.04,2162.75
3050.07,2160.4
3052.09,2148.25
3054.12,2152.15
3056.15,2159.4
3058.18,2161.7
3060.2,2142.2
3062.23,2157.75
3064.26,2149.3
3066.28,2149.15
3068.31,2141.5
3070.33,2139.2
3072.35,2152.65
3074.38,2149.95
