nm,Intensity
526.5,828.893
526.637,829.093
526.774,829.26
526.91,828.7
527.047,828.753
527.184,829.3
527.32,829.433
527.457,829.113
527.594,828.887
527.73,828.727
527.867,829.4
528.004,828.873
528.14,828.953
528.277,829.173
528.414,828.933
528.55,829.02
528.687,828.9
528.823,829.107
528.96,829.027
529.096,829.033
529.233,828.993
529.37,828.773
529.506,829.027
529.643,828.907
529.779,828.807
529.916,829.067
530.052,829.007
530.189,829.367
530.325,829.053
530.462,829.273
530.598,829.287
530.735,828.82
530.871,829.153
531.008,828.953
531.144,829.28
531.28,829.28
531.417,828.967
531.553,829.127
531.69,828.58
531.826,829.46
531.962,840.12
532.099,939.58
532.235,1000.31
532.372,874.073
532.508,832.62
532.644,829.647
532.781,829.267
532.917,828.82
533.053,828.933
533.19,829.073
533.326,829.127
533.462,829.453
533.599,831.72
533.735,851.313
533.871,959.207
534.007,1157.59
534.144,1275.63
534.28,1299.87
534.416,1298.64
534.552,1305.65
534.689,1315.22
534.825,1318.09
534.961,1312.2
535.097,1307.37
535.234,1309.02
535.37,1313.85
535.506,1325.61
535.642,1330.15
535.778,1334.21
535.914,1334.91
536.051,1334.75
536.187,1338.98
536.323,1339.57
536.459,1343.08
536.595,1341.78
536.731,1343.7
536.867,1344.13
537.003,1345.01
537.14,1345.63
537.276,1346.49
537.412,1347.93
537.548,1350.16
537.684,1354.57
537.82,1356.52
537.956,1357.31
538.092,1365.09
538.228,1365.4
538.364,1365.27
538.5,1366.77
538.636,1368.04
538.772,1366.94
538.908,1370.26
539.044,1372.59
539.18,1372.75
539.316,1377.02
539.452,1378.89
539.588,1381.34
539.724,1384.95
539.86,1385.83
539.996,1390.34
540.132,1391.37
540.268,1392.63
540.403,1391.5
540.539,1393.77
540.675,1394.09
540.811,1396.33
540.947,1397.81
541.083,1402.43
541.219,1406.22
541.355,1406.87
541.49,1409.68
541.626,1411.87
541.762,1412.58
541.898,1416.79
542.034,1417.76
542.17,1420.41
542.305,1419.5
542.441,1423.39
542.577,1426.36
542.713,1431.62
542.848,1432.11
542.984,1434.86
543.12,1439.91
543.256,1441.21
543.391,1441.74
543.527,1445.8
543.663,1448.42
543.799,1451.39
543.934,1453.34
544.07,1455.0
544.206,1457.59
544.341,1461.7
544.477,1462.26
544.613,1465.19
544.748,1468.14
544.884,1472.91
545.02,1474.89
545.155,1476.83
545.291,1477.17
545.427,1481.29
545.562,1483.32
545.698,1487.2
545.833,1484.73
545.969,1490.42
546.105,1491.13
546.24,1493.75
546.376,1497.44
546.511,1495.47
546.647,1500.06
546.782,1505.45
546.918,1509.67
547.053,1507.83
547.189,1509.36
547.325,1509.45
547.46,1511.87
547.596,1512.78
547.731,1515.03
547.867,1518.27
548.002,1520.07
548.137,1515.12
548.273,1522.26
548.408,1527.02
548.544,1526.79
548.679,1534.17
548.815,1535.35
548.95,1537.97
549.086,1542.3
549.221,1542.26
549.356,1547.11
549.492,1549.75
549.627,1549.91
549.763,1555.33
549.898,1553.8
550.033,1553.97
550.169,1557.13
550.304,1555.55
550.439,1558.91
550.575,1563.57
550.71,1564.86
550.845,1566.75
550.981,1568.84
551.116,1573.5
551.251,1575.02
551.387,1580.76
551.522,1581.81
551.657,1586.2
551.793,1587.75
551.928,1591.72
552.063,1587.39
552.198,1594.24
552.334,1590.87
552.469,1595.82
552.604,1595.17
552.739,1598.59
552.874,1598.82
553.01,1602.01
553.145,1601.81
553.28,1607.01
553.415,1607.26
553.55,1608.03
553.686,1613.89
553.821,1617.67
553.956,1621.17
554.091,1622.26
554.226,1624.2
554.361,1625.43
554.497,1630.51
554.632,1631.17
554.767,1631.11
554.902,1631.91
555.037,1631.69
555.172,1632.35
555.307,1632.05
555.442,1631.23
555.577,1632.01
555.712,1635.39
555.848,1635.93
555.983,1637.49
556.118,1636.13
556.253,1640.55
556.388,1644.15
556.523,1647.6
556.658,1652.97
556.793,1655.05
556.928,1653.87
557.063,1660.19
557.198,1657.73
557.333,1658.79
557.468,1658.83
557.603,1659.7
557.738,1666.84
557.873,1667.99
558.008,1665.96
558.142,1665.83
558.277,1663.75
558.412,1664.66
558.547,1668.28
558.682,1669.52
558.817,1671.15
558.952,1674.11
559.087,1678.42
559.222,1682.04
559.357,1682.82
559.492,1689.9
559.626,1692.69
559.761,1696.49
559.896,1702.3
560.031,1706.53
560.166,1707.33
560.301,1709.47
560.435,1711.81
560.57,1712.64
560.705,1715.33
560.84,1713.27
560.975,1715.81
561.109,1718.33
561.244,1717.17
561.379,1718.78
561.514,1718.23
561.649,1719.61
561.783,1719.65
561.918,1723.95
562.053,1725.87
562.188,1726.19
562.322,1733.03
562.457,1733.8
562.592,1734.71
562.726,1747.03
562.861,1746.57
562.996,1753.75
563.131,1756.76
563.265,1756.28
563.4,1764.85
563.535,1766.31
563.669,1773.33
563.804,1779.31
563.939,1778.21
564.073,1782.64
564.208,1787.27
564.342,1788.81
564.477,1792.42
564.612,1796.17
564.746,1805.93
564.881,1805.06
565.015,1807.73
565.15,1806.75
565.285,1805.86
565.419,1810.35
565.554,1810.41
565.688,1810.49
565.823,1814.19
565.957,1813.39
566.092,1814.41
566.227,1814.87
566.361,1817.87
566.496,1822.39
566.63,1818.28
566.765,1820.57
566.899,1822.42
567.034,1823.21
567.168,1823.25
567.303,1824.98
567.437,1827.92
567.572,1830.59
567.706,1829.78
567.84,1834.71
567.975,1837.92
568.109,1841.17
568.244,1843.73
568.378,1847.67
568.513,1855.93
568.647,1859.28
568.781,1863.35
568.916,1868.55
569.05,1874.77
569.185,1875.87
569.319,1883.55
569.453,1888.49
569.588,1890.17
569.722,1891.09
569.857,1895.18
569.991,1894.91
570.125,1900.45
570.26,1896.53
570.394,1904.37
570.528,1899.91
570.663,1900.65
570.797,1903.68
570.931,1904.31
571.065,1905.87
571.2,1906.27
571.334,1908.07
571.468,1908.83
571.603,1913.61
571.737,1917.35
571.871,1923.59
572.005,1924.6
572.14,1930.26
572.274,1932.27
572.408,1938.47
572.542,1943.69
572.677,1943.31
572.811,1953.93
572.945,1955.75
573.079,1955.67
573.213,1961.53
573.348,1965.29
573.482,1966.5
573.616,1969.11
573.75,1970.68
573.884,1971.3
574.018,1977.21
574.153,1974.71
574.287,1982.87
574.421,1982.04
574.555,1980.01
574.689,1982.5
574.823,1982.59
574.957,1984.01
575.092,1981.38
575.226,1982.68
575.36,1986.14
575.494,1990.25
575.628,1994.64
575.762,1991.66
575.896,1993.07
576.03,1993.65
576.164,1997.86
576.298,1999.38
576.432,1998.73
576.566,2002.64
576.7,2001.83
576.834,2005.52
576.968,2008.67
577.103,2007.06
577.237,2014.35
577.371,2019.96
577.505,2019.68
577.639,2023.89
577.773,2022.22
577.907,2027.57
578.04,2024.84
578.174,2022.95
578.308,2031.05
578.442,2037.15
578.576,2036.15
578.71,2043.57
578.844,2044.46
578.978,2046.91
579.112,2047.03
579.246,2052.88
579.38,2050.75
579.514,2054.4
579.648,2056.32
579.782,2061.43
579.916,2061.53
580.049,2061.87
580.183,2062.26
580.317,2066.5
580.451,2065.63
580.585,2069.5
580.719,2070.75
580.853,2067.97
580.986,2068.36
581.12,2071.58
581.254,2071.79
581.388,2072.48
581.522,2077.01
581.656,2075.5
581.789,2076.85
581.923,2075.4
582.057,2076.08
582.191,2079.95
582.325,2075.63
582.458,2077.31
582.592,2076.16
582.726,2079.64
582.86,2078.38
582.993,2082.64
583.127,2079.25
583.261,2076.58
583.395,2076.25
583.528,2077.28
583.662,2079.31
583.796,2081.11
583.93,2079.51
584.063,2079.15
584.197,2079.42
584.331,2080.69
584.464,2080.41
584.598,2079.36
584.732,2078.14
584.865,2082.57
584.999,2076.37
585.133,2080.11
585.266,2080.77
585.4,2081.55
585.534,2083.18
585.667,2086.47
585.801,2088.29
585.935,2090.11
586.068,2090.95
586.202,2099.82
586.336,2101.44
586.469,2104.26
586.603,2107.06
586.736,2110.59
586.87,2110.57
587.004,2111.25
587.137,2114.73
587.271,2114.07
587.404,2114.89
587.538,2116.77
587.671,2115.51
587.805,2113.26
587.938,2115.57
588.072,2111.39
588.206,2113.6
588.339,2114.45
588.473,2114.97
588.606,2108.59
588.74,2106.3
588.873,2106.87
589.007,2105.69
589.14,2107.67
589.274,2107.85
589.407,2106.11
589.541,2109.19
589.674,2109.82
589.808,2109.94
589.941,2112.63
590.074,2113.14
590.208,2116.71
590.341,2117.28
590.475,2117.11
590.608,2122.79
590.742,2123.19
590.875,2128.66
591.009,2128.11
591.142,2132.53
591.275,2126.59
591.409,2135.11
591.542,2137.23
591.676,2133.5
591.809,2131.21
591.942,2133.87
592.076,2134.38
592.209,2131.45
592.342,2134.11
592.476,2131.8
592.609,2128.73
592.743,2130.81
592.876,2127.71
593.009,2127.65
593.143,2130.53
593.276,2127.35
593.409,2126.89
593.543,2130.95
593.676,2131.74
593.809,2128.7
593.942,2130.35
594.076,2134.03
594.209,2134.7
594.342,2139.25
594.476,2144.69
594.609,2144.52
594.742,2142.54
594.875,2144.87
595.009,2149.52
595.142,2151.11
595.275,2153.54
595.408,2156.17
595.542,2156.02
595.675,2160.13
595.808,2160.15
595.941,2161.89
596.075,2161.39
596.208,2158.75
596.341,2161.95
596.474,2162.11
596.607,2164.23
596.741,2166.51
596.874,2165.47
597.007,2171.25
597.14,2164.83
597.273,2170.22
597.406,2168.81
597.54,2171.02
597.673,2170.31
597.806,2176.89
597.939,2180.33
598.072,2183.5
598.205,2183.35
598.338,2195.81
598.472,2193.83
598.605,2196.33
598.738,2190.01
598.871,2197.28
599.004,2196.68
599.137,2198.23
599.27,2199.06
599.403,2198.31
599.536,2202.82
599.67,2199.27
599.803,2196.79
599.936,2198.92
600.069,2198.21
600.202,2192.79
600.335,2192.69
600.468,2193.56
600.601,2186.67
600.734,2187.0
600.867,2186.6
601.0,2187.27
601.133,2185.83
601.266,2189.49
601.399,2188.19
601.532,2186.65
601.665,2188.52
601.798,2185.87
601.931,2187.71
602.064,2185.11
602.197,2190.29
602.33,2192.25
602.463,2192.82
602.596,2190.74
602.729,2200.27
602.862,2196.21
602.995,2198.88
603.128,2205.28
603.261,2200.21
603.394,2204.99
603.527,2204.28
603.66,2204.19
603.793,2206.46
603.925,2206.71
604.058,2205.05
604.191,2206.66
604.324,2202.51
604.457,2197.33
604.59,2196.07
604.723,2194.63
604.856,2190.77
604.989,2192.43
605.122,2187.67
605.254,2183.35
605.387,2178.71
605.52,2177.69
605.653,2172.04
605.786,2173.35
605.919,2169.94
606.052,2168.63
606.184,2168.27
606.317,2167.35
606.45,2166.9
606.583,2163.97
606.716,2167.18
606.849,2168.01
606.981,2171.39
607.114,2170.92
607.247,2168.96
607.38,2173.53
607.513,2175.09
607.645,2179.23
607.778,2183.47
607.911,2184.61
608.044,2189.33
608.177,2190.72
608.309,2189.44
608.442,2193.14
608.575,2196.47
608.708,2197.87
608.84,2196.57
608.973,2196.97
609.106,2197.43
609.239,2197.2
609.371,2197.22
609.504,2198.49
609.637,2195.37
609.769,2196.92
609.902,2193.83
610.035,2193.89
610.168,2197.46
610.3,2192.35
610.433,2190.92
610.566,2190.19
610.698,2190.05
610.831,2191.59
610.964,2193.58
611.096,2189.31
611.229,2193.21
611.362,2198.17
611.494,2197.83
611.627,2199.83
611.76,2200.34
611.892,2202.83
612.025,2208.76
612.158,2212.29
612.29,2214.45
612.423,2218.08
612.556,2221.31
612.688,2224.87
612.821,2227.68
612.953,2233.76
613.086,2236.89
613.219,2239.48
613.351,2242.17
613.484,2241.17
613.616,2245.61
613.749,2241.81
613.882,2243.65
614.014,2244.67
614.147,2245.05
614.279,2243.4
614.412,2249.23
614.544,2242.35
614.677,2239.19
614.809,2243.38
614.942,2245.49
615.075,2241.02
615.207,2237.97
615.34,2237.84
615.472,2236.11
615.605,2238.35
615.737,2233.36
615.87,2233.32
616.002,2235.04
616.135,2234.25
616.267,2232.73
616.4,2233.31
616.532,2234.95
616.665,2238.07
616.797,2241.11
616.93,2240.79
617.062,2244.63
617.195,2244.25
617.327,2244.95
617.46,2243.93
617.592,2249.73
617.725,2246.59
617.857,2246.27
617.989,2248.29
618.122,2250.93
618.254,2253.76
618.387,2251.67
618.519,2254.98
618.652,2255.09
618.784,2253.05
618.917,2249.56
619.049,2247.46
619.181,2245.7
619.314,2247.99
619.446,2242.18
619.579,2242.4
619.711,2244.13
619.843,2243.07
619.976,2240.43
620.108,2238.67
620.241,2238.1
620.373,2235.5
620.505,2236.35
620.638,2235.33
620.77,2236.72
620.902,2233.09
621.035,2236.08
621.167,2233.26
621.299,2235.61
621.432,2233.89
621.564,2236.15
621.696,2239.11
621.829,2234.46
621.961,2238.34
622.093,2242.07
622.226,2243.6
622.358,2242.87
622.49,2244.11
622.623,2245.98
622.755,2251.45
622.887,2247.63
623.02,2249.94
623.152,2250.32
623.284,2253.96
623.416,2253.05
623.549,2256.58
623.681,2253.79
623.813,2255.09
623.946,2253.77
624.078,2257.61
624.21,2255.59
624.342,2253.04
624.475,2253.19
624.607,2254.54
624.739,2258.4
624.871,2256.03
625.004,2254.54
625.136,2251.93
625.268,2248.99
625.4,2248.21
625.533,2248.99
625.665,2244.0
625.797,2246.77
625.929,2242.73
626.061,2241.75
626.194,2241.42
626.326,2241.61
626.458,2240.49
626.59,2237.17
626.722,2237.85
626.855,2237.93
626.987,2235.07
627.119,2235.62
627.251,2234.74
627.383,2232.5
627.516,2230.42
627.648,2224.67
627.78,2228.65
627.912,2230.2
628.044,2228.83
628.176,2226.03
628.308,2228.73
628.441,2230.26
628.573,2228.39
628.705,2226.91
628.837,2230.49
628.969,2233.07
629.101,2231.79
629.233,2230.37
629.366,2233.92
629.498,2229.97
629.63,2227.57
629.762,2230.92
629.894,2229.39
630.026,2233.05
630.158,2225.27
630.29,2231.57
630.422,2231.97
630.554,2226.71
630.687,2228.23
630.819,2230.59
630.951,2227.5
631.083,2228.97
631.215,2224.91
631.347,2223.39
631.479,2224.65
631.611,2223.46
631.743,2225.64
631.875,2226.73
632.007,2219.38
632.139,2215.3
632.271,2219.01
632.403,2216.92
632.535,2209.24
632.667,2208.33
632.799,2212.17
632.931,2207.53
633.063,2202.85
633.195,2206.07
633.328,2205.39
633.46,2202.92
633.592,2198.75
633.724,2202.22
633.856,2194.85
633.988,2195.19
634.12,2190.31
634.252,2192.56
634.384,2194.68
634.516,2188.27
634.647,2189.75
634.779,2190.65
634.911,2188.87
635.043,2189.71
635.175,2187.43
635.307,2189.71
635.439,2192.45
635.571,2186.67
635.703,2189.76
635.835,2193.17
635.967,2189.34
636.099,2185.74
636.231,2189.96
636.363,2185.97
636.495,2185.05
636.627,2186.77
636.759,2186.65
636.891,2184.6
637.023,2185.23
637.155,2181.79
637.286,2181.7
637.418,2179.9
637.55,2177.09
637.682,2184.53
637.814,2178.26
637.946,2181.81
638.078,2181.05
638.21,2173.69
638.342,2176.37
638.474,2175.74
638.605,2174.23
638.737,2172.25
638.869,2174.3
639.001,2173.29
639.133,2173.21
639.265,2174.93
639.397,2174.92
639.529,2167.57
639.66,2170.26
639.792,2169.42
639.924,2167.73
640.056,2166.77
640.188,2168.43
640.32,2168.17
640.452,2163.57
640.583,2162.51
640.715,2164.57
640.847,2163.36
640.979,2158.33
641.111,2161.45
641.243,2161.29
641.374,2160.76
641.506,2160.64
641.638,2158.77
641.77,2159.18
641.902,2158.0
642.033,2157.3
642.165,2154.37
642.297,2149.29
642.429,2147.78
642.561,2143.3
642.692,2142.66
642.824,2140.67
642.956,2135.91
643.088,2131.74
643.22,2129.39
643.351,2128.27
643.483,2125.18
643.615,2118.65
643.747,2121.37
643.878,2113.47
644.01,2111.22
644.142,2107.59
644.274,2111.97
644.405,2106.93
644.537,2103.05
644.669,2101.13
644.801,2102.07
644.932,2100.79
645.064,2098.15
645.196,2097.83
645.328,2094.83
645.459,2094.56
645.591,2091.48
645.723,2093.43
645.854,2094.81
645.986,2092.11
646.118,2090.73
646.25,2090.92
646.381,2089.86
646.513,2089.11
646.645,2091.18
646.776,2094.54
646.908,2090.55
647.04,2090.58
647.172,2089.68
647.303,2090.23
647.435,2088.06
647.567,2088.08
647.698,2082.52
647.83,2085.17
647.962,2085.06
648.093,2080.04
648.225,2076.88
648.357,2078.73
648.488,2074.9
648.62,2072.35
648.752,2072.15
648.883,2070.02
649.015,2064.54
649.147,2064.46
649.278,2061.43
649.41,2058.31
649.542,2058.49
649.673,2056.96
649.805,2057.11
649.937,2056.3
650.068,2050.75
650.2,2049.89
650.331,2050.27
650.463,2048.63
650.595,2047.17
650.726,2043.34
650.858,2044.9
650.99,2039.49
651.121,2041.41
651.253,2042.01
651.384,2043.71
651.516,2046.25
651.648,2044.27
651.779,2042.12
651.911,2044.53
652.042,2044.24
652.174,2047.02
652.306,2045.7
652.437,2043.66
652.569,2041.26
652.7,2043.05
652.832,2040.34
652.963,2041.27
653.095,2036.97
653.227,2039.89
653.358,2038.66
653.49,2033.63
653.621,2038.55
653.753,2037.0
653.884,2037.92
654.016,2036.73
654.148,2035.31
654.279,2037.8
654.411,2027.48
654.542,2029.33
654.674,2027.53
654.805,2029.23
654.937,2026.33
655.068,2026.77
655.2,2024.23
655.331,2025.9
655.463,2023.61
655.595,2024.98
655.726,2020.28
655.858,2020.85
655.989,2020.02
656.121,2017.07
656.252,2015.29
656.384,2020.01
656.515,2016.68
656.647,2019.17
656.778,2023.06
656.91,2024.11
657.041,2020.53
657.173,2018.61
657.304,2016.35
657.436,2017.73
657.567,2019.05
657.699,2016.43
657.83,2013.24
657.962,2013.17
658.093,2016.41
658.225,2015.92
658.356,2018.15
658.488,2017.49
658.619,2016.99
658.751,2013.14
658.882,2012.83
659.013,2008.18
659.145,2013.59
659.276,2021.87
659.408,2018.09
659.539,2014.59
659.671,2006.43
659.802,2008.97
659.934,2014.28
660.065,2013.34
660.197,2007.89
660.328,2001.43
660.459,2004.67
660.591,2002.61
660.722,2002.37
660.854,1995.35
660.985,1992.22
661.117,1992.22
661.248,1994.01
661.38,1989.54
661.511,1987.75
661.642,1982.91
661.774,1988.99
661.905,1988.29
662.037,1984.4
662.168,1975.73
662.299,1977.81
662.431,1974.79
662.562,1977.12
662.694,1981.69
662.825,1974.56
662.957,1970.71
663.088,1971.89
