nm,Intensity
526.549,828.42
526.686,828.56
526.823,828.96
526.96,828.0
527.096,828.36
527.233,828.72
527.37,828.48
527.507,828.36
527.643,828.18
527.78,829.1
527.917,828.62
528.053,828.44
528.19,827.58
528.327,828.78
528.463,828.18
528.6,828.9
528.737,828.06
528.873,828.9
529.01,828.2
529.146,829.44
529.283,828.48
529.42,829.02
529.556,828.56
529.693,828.88
529.829,828.44
529.966,827.96
530.102,828.2
530.239,828.48
530.375,828.96
530.512,828.64
530.648,827.98
530.785,829.34
530.921,828.08
531.058,828.4
531.194,827.6
531.331,828.16
531.467,828.64
531.604,828.5
531.74,828.38
531.877,828.94
532.013,831.74
532.149,852.44
532.286,857.2
532.422,833.92
532.559,829.08
532.695,828.68
532.831,828.7
532.968,828.64
533.104,829.14
533.24,828.46
533.377,828.54
533.513,829.12
533.649,829.72
533.786,837.46
533.922,878.62
534.058,944.26
534.194,975.22
534.331,979.86
534.467,975.28
534.603,976.5
534.739,976.66
534.876,977.38
535.012,971.98
535.148,969.74
535.284,968.52
535.42,963.66
535.557,963.28
535.693,962.84
535.829,961.94
535.965,958.3
536.101,958.6
536.237,960.28
536.374,961.24
536.51,957.6
536.646,956.8
536.782,958.46
536.918,958.58
537.054,955.52
537.19,959.16
537.326,959.56
537.462,958.96
537.598,960.7
537.734,961.4
537.87,959.5
538.007,961.6
538.143,962.64
538.279,959.84
538.415,962.18
538.551,962.18
538.687,962.6
538.823,963.3
538.959,960.82
539.094,962.28
539.23,961.04
539.366,962.76
539.502,965.14
539.638,962.54
539.774,962.86
539.91,964.84
540.046,964.54
540.182,964.88
540.318,964.46
540.454,964.48
540.59,964.12
540.725,965.58
540.861,966.38
540.997,967.54
541.133,968.12
541.269,968.92
541.405,970.82
541.54,970.7
541.676,972.36
541.812,970.0
541.948,970.96
542.084,970.72
542.219,972.32
542.355,974.28
542.491,973.16
542.627,975.12
542.762,973.38
542.898,974.54
543.034,977.94
543.17,977.0
543.305,976.66
543.441,977.42
543.577,976.7
543.712,979.34
543.848,979.74
543.984,981.54
544.119,981.24
544.255,980.94
544.391,983.4
544.526,980.18
544.662,981.72
544.798,985.82
544.933,984.28
545.069,984.52
545.204,983.38
545.34,984.92
545.476,984.84
545.611,986.56
545.747,986.84
545.882,985.7
546.018,986.56
546.153,988.36
546.289,989.98
546.425,989.36
546.56,989.1
546.696,987.58
546.831,990.72
546.967,989.12
547.102,990.74
547.238,990.38
547.373,990.92
547.509,994.38
547.644,989.68
547.779,992.94
547.915,993.62
548.05,995.24
548.186,993.74
548.321,993.4
548.457,996.24
548.592,995.46
548.727,998.06
548.863,996.72
548.998,995.46
549.134,999.62
549.269,998.66
549.404,1001.62
549.54,1001.24
549.675,999.38
549.81,1001.68
549.946,1000.56
550.081,1001.82
550.216,1003.1
550.352,1002.42
550.487,1002.62
550.622,1002.26
550.758,1004.88
550.893,1003.84
551.028,1005.36
551.163,1007.28
551.299,1008.96
551.434,1007.64
551.569,1007.48
551.704,1007.62
551.84,1011.9
551.975,1012.9
552.11,1010.54
552.245,1011.78
552.38,1011.14
552.516,1014.32
552.651,1010.5
552.786,1012.1
552.921,1012.4
553.056,1012.74
553.191,1015.74
553.327,1015.0
553.462,1016.58
553.597,1017.32
553.732,1019.44
553.867,1018.66
554.002,1022.38
554.137,1018.98
554.272,1021.4
554.408,1020.14
554.543,1021.3
554.678,1024.34
554.813,1023.74
554.948,1021.34
555.083,1020.9
555.218,1022.86
555.353,1022.42
555.488,1023.7
555.623,1023.64
555.758,1023.38
555.893,1025.24
556.028,1022.54
556.163,1026.12
556.298,1028.56
556.433,1026.42
556.568,1028.12
556.703,1028.54
556.838,1030.46
556.973,1030.7
557.108,1031.46
557.243,1032.12
557.378,1032.2
557.513,1034.68
557.648,1034.14
557.783,1035.4
557.917,1036.86
558.052,1036.56
558.187,1034.64
558.322,1035.28
558.457,1032.3
558.592,1035.34
558.727,1035.42
558.862,1037.26
558.996,1036.28
559.131,1036.54
559.266,1037.44
559.401,1036.68
559.536,1038.06
559.671,1037.28
559.805,1039.02
559.94,1040.3
560.075,1041.8
560.21,1040.46
560.345,1040.84
560.479,1039.22
560.614,1043.58
560.749,1040.66
560.884,1042.0
561.018,1045.2
561.153,1043.06
561.288,1045.52
561.423,1043.44
561.557,1043.98
561.692,1046.32
561.827,1047.48
561.962,1046.08
562.096,1046.14
562.231,1046.78
562.366,1049.04
562.5,1050.24
562.635,1052.92
562.77,1053.92
562.904,1054.0
563.039,1057.12
563.174,1057.72
563.308,1057.72
563.443,1062.5
563.577,1064.82
563.712,1069.02
563.847,1077.96
563.981,1109.08
564.116,1138.38
564.25,1113.86
564.385,1085.86
564.52,1081.86
564.654,1081.9
564.789,1080.48
564.923,1079.54
565.058,1076.48
565.192,1075.0
565.327,1074.3
565.461,1074.86
565.596,1073.66
565.731,1080.12
565.865,1084.78
566.0,1097.32
566.134,1130.14
566.269,1148.06
566.403,1118.02
566.538,1090.48
566.672,1079.9
566.806,1077.32
566.941,1077.52
567.075,1075.08
567.21,1072.72
567.344,1076.16
567.479,1080.34
567.613,1087.62
567.748,1078.22
567.882,1074.46
568.016,1075.38
568.151,1074.68
568.285,1073.56
568.42,1075.04
568.554,1078.68
568.688,1079.86
568.823,1081.78
568.957,1081.22
569.091,1078.32
569.226,1081.1
569.36,1082.06
569.494,1084.46
569.629,1082.64
569.763,1085.12
569.897,1084.68
570.032,1084.86
570.166,1083.02
570.3,1087.44
570.435,1088.56
570.569,1089.2
570.703,1091.7
570.837,1092.0
570.972,1093.32
571.106,1091.7
571.24,1098.58
571.375,1107.22
571.509,1167.98
571.643,1220.56
571.777,1156.4
571.911,1123.64
572.046,1112.94
572.18,1110.96
572.314,1105.92
572.448,1101.38
572.582,1097.14
572.717,1099.0
572.851,1093.9
572.985,1098.16
573.119,1096.5
573.253,1100.86
573.388,1100.74
573.522,1100.38
573.656,1098.84
573.79,1102.6
573.924,1105.94
574.058,1108.38
574.192,1105.98
574.326,1103.86
574.461,1102.42
574.595,1099.8
574.729,1101.42
574.863,1102.0
574.997,1101.78
575.131,1102.32
575.265,1104.16
575.399,1110.78
575.533,1135.14
575.667,1151.0
575.801,1137.66
575.935,1132.16
576.069,1150.5
576.203,1183.14
576.337,1219.84
576.472,1212.0
576.606,1187.36
576.74,1175.68
576.874,1178.04
577.008,1179.3
577.142,1176.28
577.276,1166.3
577.409,1152.0
577.543,1137.8
577.677,1130.4
577.811,1125.4
577.945,1124.06
578.079,1118.5
578.213,1116.2
578.347,1119.76
578.481,1117.54
578.615,1117.56
578.749,1116.72
578.883,1118.12
579.017,1117.0
579.151,1118.32
579.285,1121.3
579.418,1119.74
579.552,1118.7
579.686,1119.1
579.82,1117.2
579.954,1123.06
580.088,1121.34
580.222,1123.68
580.356,1122.86
580.489,1121.58
580.623,1122.14
580.757,1120.02
580.891,1122.64
581.025,1122.74
581.158,1123.96
581.292,1124.14
581.426,1121.28
581.56,1125.68
581.694,1126.86
581.827,1126.52
581.961,1126.26
582.095,1126.9
582.229,1129.08
582.363,1130.48
582.496,1127.74
582.63,1130.68
582.764,1131.58
582.898,1132.94
583.031,1133.72
583.165,1132.92
583.299,1133.84
583.432,1131.96
583.566,1133.1
583.7,1132.94
583.834,1133.76
583.967,1133.62
584.101,1130.44
584.235,1135.16
584.368,1136.14
584.502,1138.56
584.636,1133.66
584.769,1136.72
584.903,1136.36
585.037,1132.48
585.17,1137.38
585.304,1140.32
585.438,1136.3
585.571,1135.4
585.705,1139.64
585.838,1139.02
585.972,1138.78
586.106,1144.64
586.239,1145.28
586.373,1143.32
586.506,1144.52
586.64,1145.66
586.774,1146.04
586.907,1147.38
587.041,1146.08
587.174,1147.46
587.308,1148.1
587.441,1148.84
587.575,1149.04
587.708,1147.94
587.842,1146.0
587.976,1151.26
588.109,1149.44
588.243,1145.54
588.376,1148.1
588.51,1147.66
588.643,1148.06
588.777,1146.56
588.91,1146.28
589.044,1144.96
589.177,1148.74
589.311,1146.04
589.444,1148.04
589.577,1148.98
589.711,1150.02
589.844,1151.88
589.978,1149.54
590.111,1150.26
590.245,1149.52
590.378,1157.32
590.512,1154.78
590.645,1155.52
590.778,1155.34
590.912,1156.52
591.045,1155.8
591.179,1157.42
591.312,1161.28
591.445,1158.44
591.579,1156.12
591.712,1160.02
591.846,1160.5
591.979,1159.64
592.112,1161.12
592.246,1158.14
592.379,1160.62
592.512,1159.58
592.646,1158.46
592.779,1158.76
592.912,1158.18
593.046,1158.16
593.179,1156.56
593.312,1156.4
593.446,1156.1
593.579,1160.42
593.712,1157.3
593.846,1159.96
593.979,1157.98
594.112,1157.56
594.245,1159.54
594.379,1160.4
594.512,1162.16
594.645,1162.08
594.778,1163.48
594.912,1162.76
595.045,1159.56
595.178,1159.86
595.311,1164.02
595.445,1166.76
595.578,1166.48
595.711,1163.56
595.844,1165.84
595.978,1164.94
596.111,1167.02
596.244,1169.04
596.377,1165.1
596.51,1166.14
596.643,1166.12
596.777,1163.16
596.91,1168.62
597.043,1170.16
597.176,1167.96
597.309,1169.18
597.443,1170.16
597.576,1165.8
597.709,1170.48
597.842,1169.94
597.975,1168.66
598.108,1170.6
598.241,1169.26
598.374,1172.4
598.508,1174.64
598.641,1174.54
598.774,1172.72
598.907,1173.9
599.04,1173.82
599.173,1175.52
599.306,1172.94
599.439,1174.82
599.572,1175.18
599.705,1174.28
599.838,1174.12
599.972,1172.46
600.105,1172.86
600.238,1172.18
600.371,1170.3
600.504,1172.3
600.637,1168.36
600.77,1168.42
600.903,1169.26
601.036,1169.24
601.169,1167.22
601.302,1168.2
601.435,1165.58
601.568,1166.02
601.701,1166.82
601.834,1165.18
601.967,1163.92
602.1,1170.04
602.233,1166.72
602.366,1169.24
602.499,1168.4
602.632,1166.68
602.765,1165.54
602.898,1166.64
603.031,1163.92
603.164,1165.72
603.296,1163.42
603.429,1160.28
603.562,1159.9
603.695,1164.7
603.828,1165.46
603.961,1161.28
604.094,1162.26
604.227,1159.82
604.36,1160.22
604.493,1154.88
604.626,1156.64
604.758,1152.94
604.891,1153.9
605.024,1154.32
605.157,1147.98
605.29,1148.02
605.423,1145.54
605.556,1145.38
605.689,1141.4
605.821,1143.88
605.954,1142.62
606.087,1142.7
606.22,1139.6
606.353,1140.18
606.486,1140.3
606.618,1139.68
606.751,1137.9
606.884,1137.14
607.017,1132.68
607.15,1138.34
607.282,1138.74
607.415,1136.5
607.548,1137.22
607.681,1135.66
607.814,1137.92
607.946,1139.02
608.079,1140.22
608.212,1136.74
608.345,1137.38
608.477,1137.06
608.61,1135.12
608.743,1138.02
608.876,1137.78
609.008,1139.48
609.141,1133.94
609.274,1138.06
609.407,1136.44
609.539,1137.24
609.672,1133.84
609.805,1134.46
609.937,1132.84
610.07,1135.98
610.203,1133.66
610.335,1134.84
610.468,1132.94
610.601,1130.2
610.734,1132.16
610.866,1132.1
610.999,1135.42
611.132,1129.42
611.264,1131.66
611.397,1130.5
611.529,1132.98
611.662,1132.68
611.795,1130.8
611.927,1133.96
612.06,1131.88
612.193,1132.22
612.325,1134.88
612.458,1132.9
612.591,1133.68
612.723,1135.26
612.856,1136.04
612.988,1134.3
613.121,1136.38
613.254,1136.58
613.386,1136.56
613.519,1136.14
613.651,1135.66
613.784,1132.16
613.916,1133.78
614.049,1137.88
614.182,1134.84
614.314,1137.4
614.447,1137.12
614.579,1135.2
614.712,1133.54
614.844,1132.98
614.977,1134.74
615.109,1133.74
615.242,1134.76
615.374,1131.38
615.507,1132.32
615.639,1130.08
615.772,1129.62
615.904,1133.96
616.037,1131.44
616.169,1129.1
616.302,1129.44
616.434,1130.82
616.567,1135.0
616.699,1131.1
616.832,1129.34
616.964,1136.42
617.097,1138.88
617.229,1135.58
617.362,1138.22
617.494,1135.46
617.627,1137.92
617.759,1136.38
617.892,1135.94
618.024,1135.66
618.156,1137.32
618.289,1137.76
618.421,1137.14
618.554,1135.24
618.686,1136.68
618.819,1134.02
618.951,1134.78
619.083,1138.58
619.216,1134.32
619.348,1136.62
619.481,1138.24
619.613,1136.82
619.745,1136.16
619.878,1138.2
620.01,1137.56
620.142,1134.66
620.275,1133.84
620.407,1134.72
620.54,1134.88
620.672,1134.26
620.804,1134.74
620.937,1136.26
621.069,1136.56
621.201,1137.42
621.334,1138.3
621.466,1142.88
621.598,1146.24
621.731,1152.4
621.863,1153.44
621.995,1158.4
622.128,1163.54
622.26,1168.64
622.392,1170.14
622.524,1169.62
622.657,1164.04
622.789,1159.66
622.921,1148.8
623.054,1141.96
623.186,1143.14
623.318,1137.06
623.45,1138.34
623.583,1138.26
623.715,1136.18
623.847,1134.36
623.979,1134.04
624.112,1135.82
624.244,1135.12
624.376,1133.5
624.508,1133.92
624.641,1132.92
624.773,1134.16
624.905,1137.98
625.037,1133.42
625.17,1135.2
625.302,1133.72
625.434,1135.34
625.566,1137.1
625.698,1136.26
625.831,1137.3
625.963,1144.0
626.095,1147.86
626.227,1149.84
626.359,1157.4
626.492,1177.74
626.624,1205.96
626.756,1262.74
626.888,1359.76
627.02,1499.72
627.152,1655.72
627.285,1741.78
627.417,1711.68
627.549,1633.02
627.681,1562.14
627.813,1514.44
627.945,1482.0
628.077,1469.14
628.21,1486.04
628.342,1543.68
628.474,1698.18
628.606,1876.8
628.738,1782.66
628.87,1590.94
629.002,1519.48
629.134,1497.06
629.267,1473.22
629.399,1455.1
629.531,1434.48
629.663,1402.24
629.795,1374.78
629.927,1362.3
630.059,1342.42
630.191,1339.5
630.323,1340.3
630.455,1334.66
630.587,1325.4
630.719,1308.6
630.851,1287.76
630.984,1254.12
631.116,1220.5
631.248,1193.56
631.38,1175.46
631.512,1167.14
631.644,1161.92
631.776,1157.12
631.908,1150.54
632.04,1146.92
632.172,1141.94
632.304,1136.58
632.436,1131.5
632.568,1125.74
632.7,1127.86
632.832,1124.48
632.964,1123.16
633.096,1122.02
633.228,1118.56
633.36,1120.6
633.492,1116.74
633.624,1115.96
633.756,1114.68
633.888,1115.42
634.02,1111.42
634.152,1110.78
634.284,1113.48
634.416,1110.2
634.548,1110.34
634.68,1107.66
634.812,1109.46
634.944,1106.9
635.076,1106.24
635.207,1107.32
635.339,1106.36
635.471,1107.72
635.603,1108.5
635.735,1106.32
635.867,1108.22
635.999,1106.04
636.131,1106.78
636.263,1104.44
636.395,1106.82
636.527,1106.34
636.659,1104.14
636.791,1104.78
636.922,1106.18
637.054,1105.28
637.186,1102.52
637.318,1104.54
637.45,1100.9
637.582,1100.54
637.714,1102.3
637.846,1100.2
637.977,1098.44
638.109,1100.36
638.241,1102.1
638.373,1102.38
638.505,1101.18
638.637,1099.2
638.769,1098.7
638.901,1098.48
639.032,1096.66
639.164,1096.86
639.296,1098.08
639.428,1097.66
639.56,1099.08
639.692,1096.46
639.823,1098.04
639.955,1096.54
640.087,1094.7
640.219,1094.86
640.351,1097.46
640.482,1097.36
640.614,1094.72
640.746,1094.6
640.878,1095.34
641.01,1096.48
641.142,1096.34
641.273,1096.72
641.405,1094.4
641.537,1092.28
641.669,1095.04
641.8,1097.36
641.932,1092.66
642.064,1093.72
642.196,1092.0
642.328,1091.38
642.459,1089.92
642.591,1092.44
642.723,1090.72
642.855,1093.24
642.986,1091.92
643.118,1089.78
643.25,1086.74
643.382,1088.52
643.513,1087.78
643.645,1087.02
643.777,1087.02
643.909,1087.4
644.04,1084.58
644.172,1084.02
644.304,1084.4
644.435,1083.26
644.567,1084.42
644.699,1082.44
644.831,1081.82
644.962,1082.86
645.094,1082.78
645.226,1081.18
645.357,1080.04
645.489,1081.88
645.621,1078.72
645.753,1080.28
645.884,1079.62
646.016,1078.94
646.148,1077.94
646.279,1077.06
646.411,1080.3
646.543,1077.5
646.674,1078.68
646.806,1079.7
646.938,1081.02
647.069,1077.66
647.201,1078.34
647.333,1079.82
647.464,1077.78
647.596,1079.26
647.728,1076.64
647.859,1077.4
647.991,1077.86
648.123,1075.26
648.254,1075.84
648.386,1075.2
648.517,1074.7
648.649,1076.48
648.781,1075.76
648.912,1073.32
649.044,1072.98
649.176,1073.28
649.307,1072.5
649.439,1073.56
649.57,1067.48
649.702,1071.92
649.834,1070.96
649.965,1072.46
650.097,1070.68
650.228,1069.04
650.36,1068.32
650.492,1069.24
650.623,1068.92
650.755,1066.56
650.886,1068.66
651.018,1065.64
651.15,1067.6
651.281,1068.16
651.413,1066.3
651.544,1066.04
651.676,1067.14
651.808,1064.24
651.939,1065.5
652.071,1070.02
652.202,1065.9
652.334,1067.06
652.465,1065.74
652.597,1066.36
652.728,1060.84
652.86,1065.16
652.992,1065.04
653.123,1062.96
653.255,1063.18
653.386,1062.34
653.518,1063.52
653.649,1062.5
653.781,1063.4
653.912,1065.24
654.044,1063.68
654.175,1060.68
654.307,1063.6
654.438,1060.44
654.57,1064.84
654.701,1062.52
654.833,1061.7
654.965,1058.98
655.096,1057.32
655.228,1058.16
655.359,1056.82
655.491,1061.04
655.622,1059.22
655.754,1057.42
655.885,1059.54
656.017,1057.7
656.148,1056.14
656.28,1055.6
656.411,1055.88
656.542,1054.36
656.674,1057.12
656.805,1054.18
656.937,1057.14
657.068,1056.36
657.2,1058.64
657.331,1055.5
657.463,1054.94
657.594,1057.08
657.726,1054.68
657.857,1054.56
657.989,1053.64
658.12,1056.04
658.252,1054.94
658.383,1055.54
658.515,1053.64
658.646,1055.8
658.777,1054.24
658.909,1052.4
659.04,1050.74
659.172,1053.02
659.303,1053.48
659.435,1052.76
659.566,1051.9
659.698,1051.64
659.829,1053.7
659.96,1051.96
660.092,1050.32
660.223,1053.62
660.355,1050.98
660.486,1048.28
660.618,1047.62
660.749,1045.52
660.88,1042.16
661.012,1047.26
661.143,1046.6
661.275,1045.98
661.406,1046.76
661.537,1044.06
661.669,1042.88
661.8,1045.78
661.932,1044.3
662.063,1040.7
662.194,1039.78
662.326,1042.02
662.457,1042.6
662.589,1042.28
662.72,1039.28
662.851,1040.58
662.983,1038.0
663.114,1038.78
