nm,Intensity
526.486,829.8
526.622,828.9
526.759,828.3
526.896,830.0
527.033,828.9
527.169,830.3
527.306,829.0
527.443,829.0
527.579,828.0
527.716,828.0
527.853,829.5
527.989,830.0
528.126,829.7
528.263,828.9
528.399,829.2
528.536,828.8
528.672,829.3
528.809,829.1
528.946,829.0
529.082,830.1
529.219,829.5
529.355,830.7
529.492,829.6
529.628,830.1
529.765,829.5
529.901,830.1
530.038,829.4
530.174,827.7
530.311,829.6
530.447,829.8
530.584,831.3
530.72,829.3
530.857,829.2
530.993,829.8
531.13,829.6
531.266,829.5
531.403,830.5
531.539,829.9
531.676,828.7
531.812,829.6
531.948,832.8
532.085,859.9
532.221,879.9
532.358,847.1
532.494,830.0
532.63,829.8
532.767,829.5
532.903,829.0
533.039,828.9
533.176,829.9
533.312,828.9
533.448,830.3
533.585,837.3
533.721,891.8
533.857,1213.9
533.993,1826.8
534.13,2159.0
534.266,2169.7
534.402,2074.0
534.539,1962.4
534.675,1872.9
534.811,1762.3
534.947,1640.4
535.083,1509.9
535.22,1403.2
535.356,1317.6
535.492,1242.5
535.628,1178.1
535.764,1134.0
535.901,1092.6
536.037,1057.5
536.173,1036.3
536.309,1011.4
536.445,1004.6
536.581,995.1
536.717,990.5
536.854,986.3
536.99,982.8
537.126,975.7
537.262,966.0
537.398,961.2
537.534,957.8
537.67,956.4
537.806,955.7
537.942,959.5
538.078,963.6
538.214,972.7
538.35,976.3
538.486,978.5
538.622,977.2
538.758,966.2
538.894,953.5
539.03,929.6
539.166,916.3
539.302,902.5
539.438,897.6
539.574,896.2
539.71,890.0
539.846,893.4
539.982,889.5
540.118,886.2
540.254,889.6
540.39,886.5
540.526,880.3
540.662,878.8
540.798,878.5
540.933,876.6
541.069,877.3
541.205,878.0
541.341,875.9
541.477,879.0
541.613,874.6
541.749,878.8
541.884,876.0
542.02,878.8
542.156,877.1
542.292,870.2
542.428,871.9
542.563,871.7
542.699,875.9
542.835,874.6
542.971,872.5
543.106,878.7
543.242,879.3
543.378,885.1
543.514,879.8
543.649,882.0
543.785,885.6
543.921,887.9
544.057,885.1
544.192,879.7
544.328,876.5
544.464,876.9
544.599,873.2
544.735,874.9
544.871,873.5
545.006,869.4
545.142,869.9
545.278,869.3
545.413,868.1
545.549,865.9
545.684,864.5
545.82,864.1
545.956,860.6
546.091,863.3
546.227,862.0
546.362,862.5
546.498,862.5
546.634,861.3
546.769,864.1
546.905,862.3
547.04,863.7
547.176,864.3
547.311,861.6
547.447,865.2
547.582,865.5
547.718,867.2
547.853,869.1
547.989,869.6
548.124,868.6
548.26,867.5
548.395,867.9
548.531,866.7
548.666,866.8
548.802,866.0
548.937,866.6
549.072,865.1
549.208,863.0
549.343,862.7
549.479,862.8
549.614,864.3
549.75,860.8
549.885,860.2
550.02,865.7
550.156,878.5
550.291,926.0
550.426,937.5
550.562,892.4
550.697,873.6
550.832,861.1
550.968,861.2
551.103,857.3
551.238,857.9
551.374,859.0
551.509,854.1
551.644,858.5
551.78,857.8
551.915,856.2
552.05,854.1
552.185,855.8
552.321,856.1
552.456,854.6
552.591,859.0
552.726,858.2
552.862,861.5
552.997,855.6
553.132,855.2
553.267,857.2
553.403,857.8
553.538,858.2
553.673,860.1
553.808,865.2
553.943,873.7
554.078,871.3
554.214,879.4
554.349,883.7
554.484,885.9
554.619,890.2
554.754,889.6
554.889,886.6
555.024,881.5
555.16,882.6
555.295,890.8
555.43,901.9
555.565,914.6
555.7,926.2
555.835,917.4
555.97,897.2
556.105,883.8
556.24,874.8
556.375,866.9
556.51,864.4
556.645,861.5
556.78,861.8
556.915,868.7
557.05,874.0
557.185,874.4
557.32,871.4
557.455,866.5
557.59,863.0
557.725,864.7
557.86,863.9
557.995,863.2
558.13,864.2
558.265,861.6
558.4,860.9
558.535,862.4
558.67,861.7
558.805,866.1
558.94,869.0
559.075,870.6
559.21,868.5
559.345,865.1
559.479,864.8
559.614,858.6
559.749,858.4
559.884,858.8
560.019,859.5
560.154,859.5
560.289,861.4
560.424,860.3
560.558,861.3
560.693,862.1
560.828,863.4
560.963,863.7
561.098,867.8
561.232,866.7
561.367,871.7
561.502,881.9
561.637,896.0
561.772,930.7
561.906,1001.1
562.041,1319.6
562.176,1569.3
562.311,1215.3
562.445,950.8
562.58,890.6
562.715,890.9
562.85,921.7
562.984,1006.1
563.119,1056.0
563.254,995.7
563.388,931.4
563.523,898.6
563.658,886.2
563.792,881.5
563.927,880.3
564.062,881.8
564.196,884.9
564.331,883.6
564.466,885.3
564.6,884.3
564.735,881.3
564.87,881.7
565.004,879.8
565.139,882.2
565.273,881.0
565.408,875.5
565.543,872.8
565.677,868.0
565.812,864.1
565.946,863.9
566.081,863.2
566.215,858.2
566.35,862.0
566.485,865.3
566.619,869.3
566.754,880.2
566.888,902.2
567.023,930.4
567.157,927.6
567.292,903.3
567.426,889.4
567.561,891.5
567.695,908.5
567.83,949.1
567.964,966.9
568.099,961.9
568.233,965.2
568.368,974.5
568.502,981.3
568.636,966.8
568.771,939.3
568.905,915.7
569.04,896.0
569.174,891.2
569.309,891.0
569.443,882.0
569.577,881.4
569.712,875.1
569.846,876.1
569.98,875.4
570.115,873.4
570.249,875.0
570.384,876.2
570.518,873.2
570.652,874.9
570.787,872.2
570.921,870.1
571.055,875.9
571.19,874.1
571.324,875.7
571.458,881.9
571.592,878.6
571.727,883.0
571.861,885.9
571.995,884.0
572.13,886.3
572.264,889.9
572.398,893.3
572.532,899.1
572.667,898.5
572.801,898.6
572.935,894.1
573.069,891.4
573.204,884.5
573.338,879.8
573.472,879.4
573.606,881.2
573.74,883.5
573.875,879.8
574.009,879.0
574.143,880.4
574.277,877.8
574.411,871.7
574.545,871.4
574.68,869.3
574.814,868.0
574.948,869.3
575.082,868.3
575.216,868.5
575.35,866.9
575.484,868.4
575.619,866.9
575.753,867.6
575.887,866.5
576.021,870.4
576.155,877.3
576.289,886.3
576.423,896.5
576.557,906.9
576.691,913.4
576.825,909.4
576.959,892.6
577.093,876.4
577.227,871.4
577.361,869.9
577.495,871.5
577.629,867.8
577.763,864.3
577.897,868.7
578.031,869.7
578.165,870.6
578.299,868.2
578.433,869.7
578.567,868.0
578.701,869.0
578.835,868.5
578.969,869.2
579.103,866.0
579.237,865.9
579.371,867.7
579.505,863.8
579.639,867.5
579.773,869.2
579.907,868.1
580.041,870.5
580.175,870.2
580.309,870.3
580.442,870.7
580.576,873.5
580.71,875.6
580.844,881.7
580.978,898.4
581.112,937.3
581.246,934.8
581.38,910.1
581.513,920.2
581.647,979.9
581.781,1053.8
581.915,1033.7
582.049,948.0
582.183,898.5
582.316,884.7
582.45,876.5
582.584,872.4
582.718,873.1
582.852,871.5
582.985,868.4
583.119,867.8
583.253,866.7
583.387,866.5
583.52,868.2
583.654,870.1
583.788,863.5
583.922,867.9
584.055,867.1
584.189,866.9
584.323,866.1
584.456,869.3
584.59,868.5
584.724,866.5
584.858,866.8
584.991,868.5
585.125,863.8
585.259,866.9
585.392,863.2
585.526,866.6
585.66,862.8
585.793,863.8
585.927,867.7
586.061,866.8
586.194,866.8
586.328,865.5
586.462,867.2
586.595,865.5
586.729,866.5
586.862,866.4
586.996,866.7
587.13,863.9
587.263,866.1
587.397,865.3
587.53,865.0
587.664,864.3
587.797,863.9
587.931,866.2
588.065,865.9
588.198,864.1
588.332,863.1
588.465,866.2
588.599,866.2
588.732,865.5
588.866,862.2
588.999,866.7
589.133,865.9
589.266,862.1
589.4,863.8
589.533,862.4
589.667,861.0
589.8,864.5
589.934,862.3
590.067,862.7
590.201,864.2
590.334,862.2
590.468,864.8
590.601,860.8
590.735,862.0
590.868,866.8
591.001,862.6
591.135,859.1
591.268,862.2
591.402,864.5
591.535,862.6
591.669,860.0
591.802,862.8
591.935,862.6
592.069,863.1
592.202,863.2
592.335,860.2
592.469,862.9
592.602,865.1
592.736,861.3
592.869,863.5
593.002,862.7
593.136,863.1
593.269,862.8
593.402,862.8
593.536,862.6
593.669,863.7
593.802,865.1
593.936,866.0
594.069,863.9
594.202,865.4
594.336,865.9
594.469,864.6
594.602,864.1
594.735,861.8
594.869,862.5
595.002,864.1
595.135,862.0
595.268,866.1
595.402,865.3
595.535,862.5
595.668,865.3
595.801,861.8
595.935,862.4
596.068,862.1
596.201,866.0
596.334,863.2
596.468,862.1
596.601,866.7
596.734,864.4
596.867,865.8
597.0,862.6
597.133,866.2
597.267,864.7
597.4,863.2
597.533,863.2
597.666,863.8
597.799,867.3
597.932,863.2
598.066,863.3
598.199,863.5
598.332,864.1
598.465,862.2
598.598,864.3
598.731,865.7
598.864,863.7
598.998,864.4
599.131,862.2
599.264,863.8
599.397,867.2
599.53,864.6
599.663,868.4
599.796,864.3
599.929,865.9
600.062,864.9
600.195,866.9
600.328,862.5
600.461,866.0
600.594,864.6
600.727,863.8
600.86,861.6
600.994,865.9
601.127,864.1
601.26,862.3
601.393,864.1
601.526,864.9
601.659,862.6
601.792,860.9
601.925,863.5
602.058,864.2
602.191,867.2
602.324,864.0
602.457,867.0
602.589,864.8
602.722,866.2
602.855,867.9
602.988,863.1
603.121,864.9
603.254,866.6
603.387,863.4
603.52,866.2
603.653,864.3
603.786,865.3
603.919,866.4
604.052,865.1
604.185,865.5
604.318,865.5
604.451,863.1
604.583,866.5
604.716,866.9
604.849,864.8
604.982,865.2
605.115,864.2
605.248,864.1
605.381,863.9
605.514,867.8
605.646,868.3
605.779,865.6
605.912,867.8
606.045,868.1
606.178,866.6
606.311,864.1
606.443,867.8
606.576,866.1
606.709,868.8
606.842,868.0
606.975,869.1
607.107,867.5
607.24,866.5
607.373,870.0
607.506,867.3
607.639,869.2
607.771,870.1
607.904,873.6
608.037,874.3
608.17,867.7
608.302,871.7
608.435,870.2
608.568,867.5
608.701,869.9
608.833,868.0
608.966,871.7
609.099,869.2
609.232,868.6
609.364,870.9
609.497,870.3
609.63,872.1
609.762,872.1
609.895,870.5
610.028,870.9
610.161,874.2
610.293,870.5
610.426,871.1
610.559,873.5
610.691,873.4
610.824,870.4
610.957,870.8
611.089,870.8
611.222,872.7
611.355,872.6
611.487,873.7
611.62,871.4
611.752,875.7
611.885,875.4
612.018,875.9
612.15,875.3
612.283,875.7
612.416,876.2
612.548,873.9
612.681,877.3
612.813,876.0
612.946,873.1
613.078,877.2
613.211,876.3
613.344,879.7
613.476,875.6
613.609,880.5
613.741,881.3
613.874,879.5
614.006,875.6
614.139,878.7
614.272,878.8
614.404,878.7
614.537,878.2
614.669,880.6
614.802,878.6
614.934,878.0
615.067,877.8
615.199,879.3
615.332,877.5
615.464,881.3
615.597,874.5
615.729,879.3
615.862,880.5
615.994,883.6
616.127,883.3
616.259,882.8
616.392,882.9
616.524,881.8
616.657,881.9
616.789,884.4
616.922,881.3
617.054,885.8
617.186,885.3
617.319,886.2
617.451,882.8
617.584,886.2
617.716,885.0
617.849,888.6
617.981,889.8
618.113,888.3
618.246,889.3
618.378,889.0
618.511,887.5
618.643,886.9
618.775,886.5
618.908,888.5
619.04,887.3
619.173,891.7
619.305,888.5
619.437,887.5
619.57,893.4
619.702,887.6
619.834,890.5
619.967,889.5
620.099,886.3
620.231,888.8
620.364,886.7
620.496,885.5
620.628,888.2
620.761,887.4
620.893,889.7
621.025,888.1
621.158,889.3
621.29,890.2
621.422,884.4
621.555,888.5
621.687,886.0
621.819,889.0
621.952,885.6
622.084,891.9
622.216,889.7
622.348,889.6
622.481,889.1
622.613,890.5
622.745,892.9
622.878,889.5
623.01,888.4
623.142,891.0
623.274,892.1
623.407,889.0
623.539,890.1
623.671,889.5
623.803,891.7
623.935,891.8
624.068,891.1
624.2,891.9
624.332,894.7
624.464,895.6
624.597,891.6
624.729,894.2
624.861,892.5
624.993,894.3
625.125,894.3
625.258,895.2
625.39,895.5
625.522,891.5
625.654,895.0
625.786,893.6
625.918,896.5
626.051,894.3
626.183,898.3
626.315,897.0
626.447,898.6
626.579,900.8
626.711,906.7
626.844,912.2
626.976,928.1
627.108,951.1
627.24,966.4
627.372,976.8
627.504,982.1
627.636,975.0
627.768,961.8
627.901,955.3
628.033,948.6
628.165,949.7
628.297,955.7
628.429,960.3
628.561,970.8
628.693,984.4
628.825,996.3
628.957,1016.2
629.089,1032.6
629.221,1054.8
629.354,1063.2
629.486,1059.7
629.618,1063.7
629.75,1066.6
629.882,1049.2
630.014,1045.2
630.146,1026.8
630.278,1018.9
630.41,1013.1
630.542,999.0
630.674,987.1
630.806,980.5
630.938,972.7
631.07,960.8
631.202,953.9
631.334,943.3
631.466,938.1
631.598,933.7
631.73,927.6
631.862,932.5
631.994,929.9
632.126,933.6
632.258,945.2
632.39,951.6
632.522,946.1
632.654,936.0
632.786,919.1
632.918,919.6
633.05,926.4
633.182,936.0
633.314,950.3
633.446,954.6
633.578,943.4
633.71,930.8
633.842,926.8
633.974,932.3
634.106,948.2
634.237,967.0
634.369,988.4
634.501,1028.8
634.633,1053.9
634.765,1083.7
634.897,1098.0
635.029,1114.2
635.161,1178.0
635.293,1284.2
635.425,1341.1
635.557,1355.1
635.689,1326.1
635.82,1298.6
635.952,1231.4
636.084,1141.2
636.216,1086.8
636.348,1028.0
636.48,994.7
636.612,972.5
636.744,954.3
636.875,948.6
637.007,937.4
637.139,930.3
637.271,927.6
637.403,926.6
637.535,923.3
637.667,920.1
637.798,917.8
637.93,912.8
638.062,914.9
638.194,910.0
638.326,910.3
638.458,910.4
638.589,911.3
638.721,908.9
638.853,907.4
638.985,906.0
639.117,907.6
639.248,905.4
639.38,908.9
639.512,915.1
639.644,910.5
639.776,913.9
639.907,922.7
640.039,922.6
640.171,912.6
640.303,915.9
640.435,911.5
640.566,909.3
640.698,907.8
640.83,908.9
640.962,909.9
641.093,913.8
641.225,915.9
641.357,916.5
641.489,916.4
641.62,916.2
641.752,915.6
641.884,910.3
642.016,908.6
642.147,910.0
642.279,906.5
642.411,904.1
642.543,903.5
642.674,907.1
642.806,908.1
642.938,908.9
643.069,903.8
643.201,905.2
643.333,903.4
643.465,902.2
643.596,900.8
643.728,902.1
643.86,902.8
643.991,895.9
644.123,906.7
644.255,901.4
644.386,901.7
644.518,898.3
644.65,905.7
644.781,903.7
644.913,900.2
645.045,900.9
645.176,906.3
645.308,901.9
645.44,902.6
645.571,904.3
645.703,904.6
645.835,903.9
645.966,902.4
646.098,901.6
646.23,906.3
646.361,900.9
646.493,904.5
646.625,902.4
646.756,902.3
646.888,902.9
647.019,900.4
647.151,902.3
647.283,907.8
647.414,902.7
647.546,904.7
647.678,902.5
647.809,904.4
647.941,902.6
648.072,905.0
648.204,905.1
648.336,901.6
648.467,904.6
648.599,904.5
648.73,907.9
648.862,905.7
648.993,902.3
649.125,905.8
649.257,906.5
649.388,906.2
649.52,903.3
649.651,904.8
649.783,906.0
649.914,905.2
650.046,905.9
650.178,902.0
650.309,903.7
650.441,904.8
650.572,901.2
650.704,902.6
650.835,905.7
650.967,904.0
651.098,903.6
651.23,905.3
651.361,905.4
651.493,903.7
651.625,907.5
651.756,907.2
651.888,907.3
652.019,904.8
652.151,906.3
652.282,909.6
652.414,903.4
652.545,906.8
652.677,904.2
652.808,911.2
652.94,907.1
653.071,903.8
653.203,907.7
653.334,904.3
653.466,908.6
653.597,909.1
653.729,907.4
653.86,909.5
653.992,910.3
654.123,907.0
654.255,909.0
654.386,906.8
654.518,911.0
654.649,910.1
654.78,909.2
654.912,907.1
655.043,908.7
655.175,908.5
655.306,910.2
655.438,912.2
655.569,906.3
655.701,909.5
655.832,908.5
655.964,906.7
656.095,909.2
656.226,910.7
656.358,909.2
656.489,910.2
656.621,908.7
656.752,910.0
656.884,910.1
657.015,908.2
657.146,911.0
657.278,910.2
657.409,910.4
657.541,909.0
657.672,908.2
657.804,909.2
657.935,909.3
658.066,911.2
658.198,908.8
658.329,907.4
658.461,911.8
658.592,908.4
658.723,911.4
658.855,909.0
658.986,907.9
659.118,909.2
659.249,908.5
659.38,906.9
659.512,909.6
659.643,907.2
659.774,906.1
659.906,908.4
660.037,906.7
660.169,910.4
660.3,909.6
660.431,910.9
660.563,910.7
660.694,910.6
660.825,911.9
660.957,911.7
661.088,911.8
661.22,911.6
661.351,906.5
661.482,910.4
661.614,908.3
661.745,909.1
661.876,908.7
662.008,908.2
662.139,906.7
662.27,908.1
662.402,908.0
662.533,910.4
662.664,906.5
662.796,907.9
662.927,910.5
663.058,905.6
