nm,Intensity
526.486,830.7
526.622,830.2
526.759,829.2
526.896,829.8
527.033,831.4
527.169,831.4
527.306,830.6
527.443,829.7
527.579,831.0
527.716,829.6
527.853,829.8
527.989,828.9
528.126,830.1
528.263,830.0
528.399,830.8
528.536,829.2
528.672,830.0
528.809,830.1
528.946,830.5
529.082,828.7
529.219,829.8
529.355,829.7
529.492,830.6
529.628,830.2
529.765,829.5
529.901,830.2
530.038,828.4
530.174,829.5
530.311,830.3
530.447,830.3
530.584,829.7
530.72,829.7
530.857,830.2
530.993,830.3
531.13,831.1
531.266,829.9
531.403,830.8
531.539,830.5
531.676,831.0
531.812,830.5
531.948,834.2
532.085,862.0
532.221,887.2
532.358,847.2
532.494,832.2
532.63,829.7
532.767,830.2
532.903,829.0
533.039,831.7
533.176,830.8
533.312,830.2
533.448,830.7
533.585,832.4
533.721,845.3
533.857,912.4
533.993,1045.2
534.13,1123.6
534.266,1122.3
534.402,1109.0
534.539,1086.1
534.675,1064.1
534.811,1046.9
534.947,1011.8
535.083,994.6
535.22,966.8
535.356,950.0
535.492,939.5
535.628,922.5
535.764,910.9
535.901,900.8
536.037,892.7
536.173,893.3
536.309,888.3
536.445,883.5
536.581,884.0
536.717,880.2
536.854,875.2
536.99,878.1
537.126,875.3
537.262,878.3
537.398,876.1
537.534,874.6
537.67,871.4
537.806,871.3
537.942,871.0
538.078,874.0
538.214,875.2
538.35,877.0
538.486,876.5
538.622,875.4
538.758,876.4
538.894,870.3
539.03,867.5
539.166,863.0
539.302,859.4
539.438,858.9
539.574,858.2
539.71,858.5
539.846,854.0
539.982,857.8
540.118,857.3
540.254,854.6
540.39,857.6
540.526,855.7
540.662,856.6
540.798,855.3
540.933,856.1
541.069,853.6
541.205,856.1
541.341,857.3
541.477,856.4
541.613,854.6
541.749,857.0
541.884,857.3
542.02,855.3
542.156,855.9
542.292,854.3
542.428,855.4
542.563,855.7
542.699,856.2
542.835,854.8
542.971,854.6
543.106,857.0
543.242,855.4
543.378,858.3
543.514,858.6
543.649,859.1
543.785,859.6
543.921,858.8
544.057,859.1
544.192,861.8
544.328,859.1
544.464,857.0
544.599,857.2
544.735,856.7
544.871,856.6
545.006,857.7
545.142,854.0
545.278,855.0
545.413,855.7
545.549,855.5
545.684,854.7
545.82,853.3
545.956,857.8
546.091,858.4
546.227,855.1
546.362,854.6
546.498,855.8
546.634,856.7
546.769,853.6
546.905,853.8
547.04,855.9
547.176,855.9
547.311,854.4
547.447,856.0
547.582,858.0
547.718,857.9
547.853,855.3
547.989,857.4
548.124,858.0
548.26,858.8
548.395,857.9
548.531,857.3
548.666,856.7
548.802,857.3
548.937,855.6
549.072,857.8
549.208,854.8
549.343,855.0
549.479,857.5
549.614,855.5
549.75,856.9
549.885,858.7
550.02,855.7
550.156,860.5
550.291,867.8
550.426,872.6
550.562,863.4
550.697,859.7
550.832,856.3
550.968,856.1
551.103,856.4
551.238,858.4
551.374,857.6
551.509,855.4
551.644,855.7
551.78,858.3
551.915,856.1
552.05,855.4
552.185,854.4
552.321,857.3
552.456,856.1
552.591,854.7
552.726,856.5
552.862,856.0
552.997,857.9
553.132,856.1
553.267,855.8
553.403,855.7
553.538,858.2
553.673,856.4
553.808,858.9
553.943,859.5
554.078,859.8
554.214,864.9
554.349,862.0
554.484,864.5
554.619,867.0
554.754,866.6
554.889,864.6
555.024,862.9
555.16,861.5
555.295,864.7
555.43,866.9
555.565,871.6
555.7,872.2
555.835,869.6
555.97,867.7
556.105,863.2
556.24,862.2
556.375,858.3
556.51,858.4
556.645,858.7
556.78,859.2
556.915,858.2
557.05,860.4
557.185,861.2
557.32,860.2
557.455,860.1
557.59,860.5
557.725,860.6
557.86,859.7
557.995,858.3
558.13,858.4
558.265,858.2
558.4,860.5
558.535,859.4
558.67,860.6
558.805,861.4
558.94,860.2
559.075,863.5
559.21,863.9
559.345,863.5
559.479,861.8
559.614,859.8
559.749,862.8
559.884,861.0
560.019,860.2
560.154,861.9
560.289,862.3
560.424,861.3
560.558,860.5
560.693,861.9
560.828,861.6
560.963,861.4
561.098,863.1
561.232,861.3
561.367,864.2
561.502,865.6
561.637,873.4
561.772,876.1
561.906,895.0
562.041,963.2
562.176,1028.9
562.311,942.6
562.445,884.0
562.58,868.7
562.715,869.2
562.85,875.8
562.984,894.7
563.119,904.8
563.254,895.3
563.388,878.4
563.523,872.0
563.658,870.0
563.792,866.5
563.927,868.1
564.062,872.3
564.196,869.3
564.331,870.0
564.466,872.5
564.6,870.8
564.735,869.0
564.87,868.4
565.004,868.6
565.139,871.0
565.273,869.6
565.408,868.2
565.543,867.6
565.677,864.7
565.812,868.9
565.946,866.9
566.081,862.9
566.215,865.9
566.35,864.4
566.485,866.4
566.619,867.0
566.754,866.0
566.888,874.0
567.023,882.3
567.157,881.2
567.292,875.5
567.426,872.6
567.561,872.5
567.695,876.7
567.83,886.6
567.964,888.4
568.099,887.6
568.233,891.1
568.368,891.1
568.502,892.3
568.636,889.3
568.771,885.3
568.905,880.8
569.04,876.5
569.174,875.7
569.309,874.7
569.443,874.7
569.577,872.1
569.712,874.7
569.846,873.0
569.98,871.4
570.115,872.4
570.249,871.5
570.384,869.6
570.518,874.5
570.652,870.3
570.787,875.0
570.921,872.8
571.055,871.3
571.19,871.5
571.324,876.1
571.458,874.9
571.592,873.4
571.727,877.3
571.861,874.6
571.995,875.6
572.13,876.8
572.264,878.9
572.398,877.1
572.532,882.2
572.667,879.0
572.801,879.6
572.935,880.6
573.069,874.2
573.204,876.6
573.338,876.7
573.472,873.8
573.606,876.7
573.74,881.0
573.875,879.3
574.009,873.9
574.143,875.5
574.277,874.6
574.411,876.3
574.545,874.5
574.68,874.5
574.814,873.2
574.948,875.0
575.082,873.1
575.216,873.3
575.35,873.7
575.484,870.9
575.619,874.4
575.753,874.5
575.887,874.3
576.021,874.8
576.155,874.6
576.289,879.5
576.423,881.6
576.557,886.4
576.691,885.1
576.825,885.8
576.959,880.5
577.093,876.7
577.227,873.8
577.361,875.1
577.495,874.2
577.629,873.2
577.763,876.5
577.897,873.0
578.031,873.0
578.165,877.2
578.299,873.6
578.433,875.0
578.567,871.4
578.701,872.0
578.835,872.7
578.969,875.3
579.103,876.2
579.237,877.7
579.371,873.7
579.505,873.7
579.639,875.4
579.773,878.5
579.907,878.0
580.041,874.6
580.175,873.7
580.309,875.3
580.442,875.8
580.576,877.2
580.71,874.9
580.844,881.0
580.978,882.5
581.112,889.7
581.246,888.8
581.38,883.6
581.513,885.2
581.647,898.4
581.781,921.4
581.915,916.6
582.049,891.1
582.183,881.7
582.316,878.5
582.45,878.8
582.584,877.7
582.718,873.6
582.852,873.7
582.985,876.2
583.119,876.7
583.253,876.5
583.387,875.4
583.52,873.3
583.654,873.1
583.788,874.1
583.922,876.1
584.055,872.3
584.189,873.9
584.323,874.6
584.456,876.5
584.59,874.0
584.724,872.9
584.858,876.0
584.991,874.9
585.125,874.3
585.259,874.6
585.392,872.2
585.526,875.5
585.66,874.8
585.793,876.9
585.927,876.4
586.061,871.0
586.194,874.3
586.328,875.4
586.462,876.1
586.595,875.0
586.729,873.4
586.862,875.0
586.996,875.8
587.13,876.9
587.263,876.3
587.397,874.7
587.53,876.8
587.664,876.5
587.797,875.6
587.931,876.4
588.065,876.5
588.198,873.4
588.332,876.0
588.465,877.4
588.599,875.3
588.732,876.1
588.866,877.3
588.999,876.8
589.133,876.3
589.266,877.8
589.4,875.2
589.533,875.7
589.667,877.9
589.8,878.4
589.934,878.2
590.067,875.8
590.201,878.3
590.334,876.0
590.468,877.4
590.601,876.4
590.735,878.4
590.868,876.7
591.001,878.3
591.135,876.5
591.268,875.2
591.402,879.8
591.535,878.5
591.669,876.9
591.802,879.2
591.935,879.8
592.069,878.7
592.202,876.1
592.335,880.3
592.469,878.4
592.602,877.8
592.736,876.4
592.869,880.9
593.002,878.5
593.136,880.8
593.269,879.5
593.402,876.2
593.536,881.9
593.669,882.0
593.802,878.2
593.936,881.7
594.069,881.2
594.202,879.8
594.336,881.6
594.469,881.0
594.602,882.0
594.735,879.8
594.869,883.9
595.002,886.3
595.135,882.4
595.268,879.6
595.402,886.5
595.535,881.9
595.668,883.3
595.801,881.1
595.935,883.5
596.068,881.5
596.201,884.9
596.334,885.0
596.468,881.5
596.601,885.0
596.734,884.6
596.867,882.5
597.0,886.9
597.133,886.9
597.267,887.3
597.4,887.8
597.533,882.7
597.666,885.4
597.799,888.7
597.932,885.0
598.066,886.5
598.199,887.7
598.332,887.2
598.465,892.0
598.598,892.7
598.731,893.8
598.864,889.4
598.998,891.7
599.131,889.8
599.264,888.5
599.397,890.6
599.53,892.8
599.663,890.2
599.796,891.2
599.929,891.1
600.062,893.4
600.195,888.5
600.328,892.9
600.461,893.2
600.594,894.6
600.727,894.2
600.86,894.0
600.994,891.9
601.127,890.1
601.26,893.7
601.393,891.9
601.526,894.2
601.659,893.3
601.792,894.6
601.925,894.5
602.058,895.0
602.191,893.9
602.324,896.1
602.457,896.6
602.589,897.9
602.722,898.3
602.855,898.6
602.988,895.4
603.121,896.6
603.254,894.8
603.387,897.2
603.52,897.9
603.653,900.7
603.786,899.9
603.919,901.6
604.052,903.2
604.185,897.6
604.318,898.9
604.451,901.2
604.583,899.1
604.716,902.9
604.849,901.6
604.982,898.3
605.115,902.7
605.248,904.0
605.381,902.1
605.514,900.9
605.646,902.1
605.779,902.5
605.912,900.7
606.045,901.4
606.178,900.9
606.311,900.5
606.443,902.7
606.576,901.1
606.709,903.6
606.842,903.4
606.975,901.9
607.107,904.0
607.24,901.4
607.373,906.9
607.506,902.0
607.639,903.9
607.771,904.0
607.904,903.9
608.037,906.4
608.17,908.0
608.302,903.2
608.435,908.7
608.568,905.4
608.701,908.2
608.833,909.3
608.966,907.7
609.099,910.0
609.232,905.4
609.364,907.5
609.497,912.1
609.63,906.8
609.762,908.9
609.895,909.2
610.028,907.4
610.161,905.2
610.293,910.2
610.426,908.8
610.559,907.4
610.691,908.1
610.824,906.4
610.957,907.8
611.089,910.8
611.222,909.5
611.355,909.4
611.487,905.6
611.62,908.7
611.752,911.3
611.885,910.9
612.018,910.2
612.15,912.4
612.283,911.0
612.416,908.9
612.548,911.2
612.681,910.9
612.813,911.5
612.946,912.5
613.078,915.9
613.211,912.6
613.344,911.1
613.476,912.1
613.609,912.9
613.741,910.8
613.874,916.4
614.006,909.1
614.139,913.2
614.272,914.8
614.404,915.3
614.537,914.6
614.669,912.8
614.802,913.8
614.934,911.6
615.067,913.4
615.199,911.3
615.332,914.9
615.464,911.9
615.597,908.7
615.729,913.2
615.862,910.2
615.994,911.6
616.127,909.7
616.259,913.6
616.392,913.0
616.524,910.2
616.657,910.8
616.789,915.7
616.922,919.4
617.054,910.7
617.186,911.5
617.319,910.7
617.451,913.5
617.584,914.4
617.716,911.8
617.849,910.3
617.981,914.6
618.113,911.3
618.246,912.2
618.378,916.0
618.511,915.9
618.643,908.0
618.775,912.1
618.908,912.0
619.04,910.4
619.173,909.0
619.305,909.4
619.437,913.7
619.57,910.9
619.702,913.4
619.834,911.2
619.967,911.6
620.099,905.4
620.231,912.5
620.364,907.8
620.496,910.1
620.628,906.4
620.761,909.9
620.893,909.8
621.025,908.6
621.158,909.7
621.29,908.1
621.422,912.5
621.555,907.9
621.687,909.8
621.819,905.5
621.952,906.3
622.084,911.0
622.216,912.1
622.348,911.5
622.481,909.9
622.613,911.6
622.745,911.2
622.878,909.7
623.01,908.3
623.142,914.0
623.274,907.8
623.407,907.9
623.539,910.4
623.671,906.9
623.803,909.2
623.935,908.0
624.068,908.2
624.2,908.4
624.332,909.5
624.464,909.5
624.597,911.4
624.729,907.9
624.861,908.2
624.993,908.9
625.125,908.1
625.258,907.1
625.39,909.9
625.522,906.0
625.654,910.4
625.786,908.6
625.918,910.6
626.051,909.1
626.183,907.5
626.315,907.5
626.447,904.9
626.579,908.8
626.711,909.9
626.844,911.4
626.976,917.1
627.108,920.5
627.24,928.9
627.372,929.3
627.504,925.8
627.636,927.4
627.768,921.7
627.901,922.4
628.033,921.3
628.165,919.9
628.297,921.4
628.429,922.8
628.561,924.4
628.693,926.0
628.825,932.8
628.957,933.5
629.089,938.5
629.221,942.9
629.354,944.2
629.486,942.4
629.618,945.0
629.75,942.1
629.882,940.9
630.014,942.8
630.146,933.3
630.278,937.1
630.41,931.5
630.542,932.2
630.674,926.7
630.806,928.0
630.938,925.4
631.07,922.7
631.202,918.0
631.334,920.0
631.466,918.7
631.598,915.6
631.73,914.0
631.862,916.4
631.994,914.0
632.126,916.2
632.258,916.8
632.39,916.9
632.522,916.2
632.654,912.4
632.786,909.1
632.918,908.3
633.05,910.0
633.182,915.9
633.314,915.3
633.446,916.8
633.578,911.1
633.71,908.0
633.842,911.6
633.974,909.6
634.106,912.3
634.237,914.6
634.369,921.9
634.501,933.7
634.633,937.3
634.765,943.1
634.897,949.1
635.029,949.9
635.161,968.5
635.293,984.3
635.425,1000.4
635.557,1004.4
635.689,998.6
635.82,990.7
635.952,973.0
636.084,957.8
636.216,942.5
636.348,933.3
636.48,921.8
636.612,922.3
636.744,919.2
636.875,909.8
637.007,915.6
637.139,907.8
637.271,906.5
637.403,907.7
637.535,907.3
637.667,907.0
637.798,905.8
637.93,904.3
638.062,904.8
638.194,901.5
638.326,903.4
638.458,903.3
638.589,904.3
638.721,904.4
638.853,903.3
638.985,902.6
639.117,903.0
639.248,905.6
639.38,906.5
639.512,903.9
639.644,904.4
639.776,905.3
639.907,906.2
640.039,908.2
640.171,904.7
640.303,906.2
640.435,901.1
640.566,904.2
640.698,899.2
640.83,901.2
640.962,903.4
641.093,903.1
641.225,903.8
641.357,902.0
641.489,902.4
641.62,907.1
641.752,904.3
641.884,903.7
642.016,902.6
642.147,899.0
642.279,903.3
642.411,900.7
642.543,901.5
642.674,901.3
642.806,898.8
642.938,901.3
643.069,901.9
643.201,900.6
643.333,898.9
643.465,901.6
643.596,904.2
643.728,901.0
643.86,902.0
643.991,900.5
644.123,897.1
644.255,902.1
644.386,901.0
644.518,898.4
644.65,901.0
644.781,898.9
644.913,899.3
645.045,898.7
645.176,899.6
645.308,902.1
645.44,903.1
645.571,902.0
645.703,900.8
645.835,897.6
645.966,900.4
646.098,900.0
646.23,901.3
646.361,898.8
646.493,900.6
646.625,899.8
646.756,904.5
646.888,902.7
647.019,898.6
647.151,897.4
647.283,902.0
647.414,902.2
647.546,898.8
647.678,900.4
647.809,900.0
647.941,899.3
648.072,900.0
648.204,899.8
648.336,900.1
648.467,899.3
648.599,903.2
648.73,900.6
648.862,902.2
648.993,898.4
649.125,903.9
649.257,903.4
649.388,901.9
649.52,902.0
649.651,899.3
649.783,899.0
649.914,902.0
650.046,900.9
650.178,902.8
650.309,899.8
650.441,899.9
650.572,900.5
650.704,900.2
650.835,901.4
650.967,899.9
651.098,899.1
651.23,900.4
651.361,902.7
651.493,903.2
651.625,899.1
651.756,902.7
651.888,905.2
652.019,900.9
652.151,900.3
652.282,904.8
652.414,900.8
652.545,907.2
652.677,900.0
652.808,903.8
652.94,904.7
653.071,902.0
653.203,901.5
653.334,905.6
653.466,901.1
653.597,901.9
653.729,903.4
653.86,902.3
653.992,901.0
654.123,902.7
654.255,904.8
654.386,902.3
654.518,903.1
654.649,901.4
654.78,905.8
654.912,902.9
655.043,899.4
655.175,900.8
655.306,905.4
655.438,905.7
655.569,904.5
655.701,904.9
655.832,902.2
655.964,905.1
656.095,904.6
656.226,903.2
656.358,901.1
656.489,905.8
656.621,903.4
656.752,905.5
656.884,905.6
657.015,904.8
657.146,904.3
657.278,907.4
657.409,905.5
657.541,906.2
657.672,907.3
657.804,906.6
657.935,906.3
658.066,905.4
658.198,903.2
658.329,909.0
658.461,907.3
658.592,908.5
658.723,906.0
658.855,905.2
658.986,907.8
659.118,907.4
659.249,901.7
659.38,908.6
659.512,905.9
659.643,907.9
659.774,906.8
659.906,905.4
660.037,907.4
660.169,909.8
660.3,905.6
660.431,905.5
660.563,906.4
660.694,909.2
660.825,904.8
660.957,906.9
661.088,902.2
661.22,907.1
661.351,908.8
661.482,903.2
661.614,907.5
661.745,908.1
661.876,905.9
662.008,907.1
662.139,904.7
662.27,902.8
662.402,906.5
662.533,903.1
662.664,907.7
662.796,909.9
662.927,905.0
663.058,908.3
