nm,Intensity
526.508,828.6
526.645,828.0
526.782,828.9
526.919,828.2
527.055,828.6
527.192,827.4
527.329,829.2
527.465,830.0
527.602,828.5
527.739,827.7
527.875,827.5
528.012,827.5
528.149,828.7
528.285,828.5
528.422,828.9
528.558,827.6
528.695,827.4
528.832,828.3
528.968,828.2
529.105,828.5
529.241,828.1
529.378,829.4
529.514,827.6
529.651,828.8
529.787,827.6
529.924,829.3
530.061,827.2
530.197,826.8
530.334,828.4
530.47,826.7
530.606,826.7
530.743,826.9
530.879,828.3
531.016,829.0
531.152,826.7
531.289,828.2
531.425,827.5
531.562,828.5
531.698,828.6
531.834,829.0
531.971,832.4
532.107,855.5
532.244,869.0
532.38,838.4
532.516,828.0
532.653,828.7
532.789,828.6
532.925,827.3
533.062,828.9
533.198,829.3
533.334,829.1
533.471,829.4
533.607,835.4
533.743,903.7
533.879,1218.0
534.016,1760.4
534.152,2012.5
534.288,1990.1
534.424,1910.0
534.561,1824.3
534.697,1739.7
534.833,1651.0
534.969,1536.2
535.106,1427.4
535.242,1331.8
535.378,1248.5
535.514,1183.0
535.65,1123.5
535.786,1084.3
535.923,1043.3
536.059,1017.1
536.195,995.9
536.331,978.1
536.467,964.9
536.603,956.1
536.739,954.2
536.876,950.7
537.012,949.5
537.148,937.3
537.284,938.2
537.42,931.9
537.556,927.0
537.692,921.8
537.828,921.3
537.964,926.8
538.1,932.4
538.236,938.4
538.372,943.5
538.508,950.2
538.644,944.5
538.78,936.6
538.916,917.8
539.052,902.9
539.188,884.8
539.324,872.3
539.46,869.3
539.596,865.4
539.732,861.4
539.868,863.8
540.004,863.7
540.14,861.6
540.275,860.0
540.411,860.3
540.547,856.6
540.683,851.9
540.819,854.7
540.955,852.9
541.091,854.3
541.227,853.6
541.362,853.5
541.498,853.5
541.634,854.0
541.77,852.5
541.906,852.9
542.041,853.8
542.177,852.3
542.313,852.7
542.449,851.6
542.585,851.4
542.72,851.8
542.856,852.0
542.992,854.8
543.128,855.4
543.263,855.1
543.399,858.1
543.535,860.2
543.67,861.9
543.806,865.8
543.942,866.9
544.078,865.3
544.213,863.1
544.349,860.4
544.485,858.7
544.62,855.0
544.756,856.0
544.892,852.2
545.027,851.6
545.163,851.8
545.298,849.3
545.434,850.8
545.57,849.9
545.705,847.5
545.841,845.4
545.976,845.4
546.112,846.7
546.248,848.1
546.383,845.2
546.519,845.6
546.654,846.2
546.79,847.0
546.925,844.4
547.061,846.8
547.196,846.6
547.332,847.7
547.467,847.0
547.603,850.5
547.738,848.5
547.874,853.5
548.009,856.8
548.145,852.8
548.28,853.2
548.416,851.3
548.551,852.4
548.686,851.8
548.822,849.4
548.957,848.6
549.093,848.0
549.228,846.8
549.363,849.3
549.499,846.3
549.634,846.8
549.77,846.5
549.905,848.2
550.04,852.1
550.176,865.1
550.311,910.3
550.446,915.3
550.582,872.8
550.717,852.7
550.852,851.1
550.988,846.7
551.123,844.0
551.258,844.4
551.394,843.7
551.529,843.8
551.664,842.2
551.799,843.0
551.935,844.8
552.07,842.7
552.205,843.7
552.34,842.0
552.476,840.7
552.611,845.1
552.746,846.3
552.881,845.5
553.016,844.3
553.152,842.1
553.287,843.1
553.422,845.3
553.557,844.9
553.692,848.1
553.827,852.4
553.963,855.9
554.098,860.6
554.233,869.9
554.368,870.7
554.503,874.6
554.638,877.6
554.773,873.2
554.908,873.8
555.043,872.1
555.179,867.8
555.314,873.2
555.449,889.2
555.584,902.6
555.719,909.7
555.854,897.7
555.989,882.2
556.124,870.8
556.259,863.3
556.394,856.6
556.529,854.9
556.664,849.2
556.799,853.1
556.934,856.7
557.069,860.3
557.204,863.9
557.339,861.4
557.474,856.3
557.609,854.9
557.744,853.9
557.879,853.0
558.014,854.6
558.149,852.7
558.284,849.5
558.419,854.9
558.553,853.1
558.688,852.8
558.823,854.6
558.958,858.0
559.093,861.2
559.228,861.9
559.363,853.8
559.498,851.6
559.632,852.2
559.767,849.7
559.902,847.1
560.037,849.4
560.172,848.4
560.307,848.8
560.441,849.1
560.576,852.7
560.711,850.2
560.846,852.5
560.981,854.8
561.115,855.8
561.25,855.7
561.385,861.4
561.52,869.8
561.654,889.1
561.789,916.0
561.924,1004.4
562.059,1334.0
562.193,1522.7
562.328,1151.6
562.463,918.8
562.598,879.2
562.732,881.3
562.867,916.3
563.002,999.1
563.136,1032.4
563.271,974.3
563.406,912.8
563.54,881.2
563.675,873.5
563.81,866.5
563.944,867.8
564.079,872.8
564.213,872.6
564.348,877.5
564.483,876.7
564.617,872.0
564.752,870.6
564.887,869.3
565.021,872.0
565.156,870.0
565.29,868.7
565.425,863.9
565.559,859.4
565.694,855.2
565.828,853.8
565.963,849.8
566.098,848.6
566.232,849.1
566.367,850.1
566.501,852.4
566.636,860.1
566.77,866.8
566.905,892.9
567.039,921.4
567.174,906.2
567.308,885.8
567.443,879.1
567.577,883.0
567.711,901.9
567.846,931.9
567.98,947.0
568.115,941.9
568.249,946.3
568.384,957.1
568.518,959.5
568.652,947.7
568.787,923.8
568.921,897.9
569.056,882.2
569.19,877.8
569.324,874.1
569.459,868.8
569.593,861.6
569.727,863.8
569.862,861.4
569.996,860.9
570.131,862.0
570.265,859.6
570.399,859.0
570.534,858.4
570.668,858.8
570.802,858.8
570.936,857.7
571.071,858.1
571.205,859.6
571.339,859.2
571.474,862.2
571.608,866.3
571.742,867.2
571.876,869.6
572.011,871.3
572.145,871.3
572.279,873.6
572.413,876.5
572.548,884.6
572.682,885.8
572.816,884.4
572.95,878.3
573.084,873.9
573.219,868.0
573.353,867.2
573.487,862.6
573.621,863.8
573.755,863.8
573.889,864.9
574.024,865.4
574.158,863.4
574.292,859.9
574.426,856.1
574.56,853.6
574.694,851.5
574.828,851.6
574.963,849.2
575.097,851.9
575.231,850.3
575.365,850.9
575.499,850.2
575.633,850.1
575.767,852.2
575.901,851.6
576.035,854.1
576.169,862.3
576.303,868.2
576.437,880.9
576.571,890.8
576.706,897.9
576.84,890.1
576.974,869.4
577.108,859.5
577.242,854.1
577.376,854.0
577.51,849.5
577.644,850.5
577.778,851.0
577.912,850.8
578.046,852.9
578.179,853.1
578.313,849.6
578.447,850.0
578.581,850.9
578.715,850.3
578.849,850.6
578.983,850.5
579.117,849.8
579.251,851.8
579.385,854.6
579.519,851.3
579.653,851.1
579.787,851.9
579.921,850.1
580.054,851.8
580.188,851.7
580.322,851.0
580.456,850.5
580.59,855.8
580.724,854.8
580.858,863.8
580.991,881.1
581.125,915.2
581.259,910.5
581.393,887.6
581.527,902.7
581.661,966.5
581.794,1034.4
581.928,1002.9
582.062,920.4
582.196,880.0
582.33,864.8
582.463,858.7
582.597,857.5
582.731,853.2
582.865,852.5
582.998,852.2
583.132,851.5
583.266,849.9
583.4,852.2
583.533,851.4
583.667,849.8
583.801,850.1
583.935,849.9
584.068,848.9
584.202,850.7
584.336,847.7
584.469,849.9
584.603,853.7
584.737,851.3
584.87,848.4
585.004,848.9
585.138,847.2
585.271,850.1
585.405,848.1
585.539,848.7
585.672,849.5
585.806,847.4
585.94,848.6
586.073,848.3
586.207,847.9
586.34,848.2
586.474,849.1
586.608,846.1
586.741,847.0
586.875,847.4
587.008,849.0
587.142,848.0
587.276,848.5
587.409,847.8
587.543,847.2
587.676,847.9
587.81,847.5
587.943,848.5
588.077,847.8
588.21,848.3
588.344,848.9
588.478,847.0
588.611,849.8
588.745,850.5
588.878,849.5
589.012,849.5
589.145,849.4
589.279,849.6
589.412,849.6
589.546,849.0
589.679,848.8
589.812,848.5
589.946,849.6
590.079,847.5
590.213,845.3
590.346,847.7
590.48,849.8
590.613,849.3
590.747,846.9
590.88,846.4
591.013,847.6
591.147,848.0
591.28,845.2
591.414,848.2
591.547,849.3
591.68,849.5
591.814,846.8
591.947,848.3
592.081,846.8
592.214,848.6
592.347,848.1
592.481,848.0
592.614,848.6
592.747,849.0
592.881,848.3
593.014,849.3
593.147,849.5
593.281,846.8
593.414,849.0
593.547,848.5
593.681,848.2
593.814,846.5
593.947,848.6
594.081,848.5
594.214,850.7
594.347,848.9
594.48,849.3
594.614,850.1
594.747,848.0
594.88,847.8
595.014,848.0
595.147,847.8
595.28,850.7
595.413,849.2
595.547,847.6
595.68,847.9
595.813,848.8
595.946,846.5
596.079,846.7
596.213,849.8
596.346,849.3
596.479,850.3
596.612,847.9
596.745,849.6
596.879,849.8
597.012,847.9
597.145,853.1
597.278,848.8
597.411,847.4
597.545,849.2
597.678,852.3
597.811,847.6
597.944,849.1
598.077,849.9
598.21,848.8
598.343,849.0
598.476,849.4
598.61,850.2
598.743,852.0
598.876,849.4
599.009,850.1
599.142,850.3
599.275,849.9
599.408,849.1
599.541,849.0
599.674,850.7
599.807,852.8
599.941,850.2
600.074,852.8
600.207,850.2
600.34,850.1
600.473,850.5
600.606,850.3
600.739,850.3
600.872,850.8
601.005,850.6
601.138,852.8
601.271,851.0
601.404,853.6
601.537,849.7
601.67,849.3
601.803,851.7
601.936,851.6
602.069,850.8
602.202,852.0
602.335,852.8
602.468,853.4
602.601,852.9
602.734,855.4
602.867,854.2
603.0,852.6
603.133,853.0
603.266,852.6
603.399,850.7
603.532,854.0
603.664,851.4
603.797,852.8
603.93,855.2
604.063,852.9
604.196,852.9
604.329,854.1
604.462,853.7
604.595,853.9
604.728,854.0
604.861,854.7
604.994,853.5
605.126,854.2
605.259,852.0
605.392,856.2
605.525,854.1
605.658,853.0
605.791,853.8
605.924,855.2
606.056,854.2
606.189,854.6
606.322,854.2
606.455,855.1
606.588,852.9
606.721,855.4
606.853,855.1
606.986,853.8
607.119,856.1
607.252,853.1
607.385,853.9
607.517,855.4
607.65,853.8
607.783,856.6
607.916,853.9
608.049,857.0
608.181,854.8
608.314,854.7
608.447,857.4
608.58,857.6
608.712,856.6
608.845,857.5
608.978,858.0
609.111,856.7
609.243,856.7
609.376,858.2
609.509,858.0
609.641,857.0
609.774,856.2
609.907,857.3
610.04,857.5
610.172,859.7
610.305,857.2
610.438,859.4
610.57,858.4
610.703,858.0
610.836,859.5
610.968,859.7
611.101,858.9
611.234,859.5
611.366,860.1
611.499,860.7
611.632,856.2
611.764,859.3
611.897,860.2
612.03,861.8
612.162,859.6
612.295,861.6
612.428,859.1
612.56,860.7
612.693,858.2
612.825,862.0
612.958,859.9
613.091,860.0
613.223,861.2
613.356,862.2
613.488,864.8
613.621,861.6
613.754,862.0
613.886,863.3
614.019,859.6
614.151,861.9
614.284,862.3
614.416,860.3
614.549,861.4
614.681,860.6
614.814,863.3
614.947,862.0
615.079,862.8
615.212,863.3
615.344,864.5
615.477,862.7
615.609,862.3
615.742,863.6
615.874,861.9
616.007,864.3
616.139,867.9
616.272,865.7
616.404,864.6
616.537,862.6
616.669,865.9
616.802,868.2
616.934,864.4
617.067,867.8
617.199,867.6
617.332,868.8
617.464,868.0
617.596,867.9
617.729,869.6
617.861,869.5
617.994,869.7
618.126,870.8
618.259,868.5
618.391,867.7
618.524,870.2
618.656,869.4
618.788,868.5
618.921,868.6
619.053,867.1
619.186,868.2
619.318,866.2
619.45,867.0
619.583,870.2
619.715,869.9
619.848,868.4
619.98,867.3
620.112,869.5
620.245,866.5
620.377,868.9
620.509,867.4
620.642,867.1
620.774,866.8
620.907,869.9
621.039,868.3
621.171,869.0
621.304,866.6
621.436,869.7
621.568,865.6
621.701,867.5
621.833,866.3
621.965,868.4
622.097,868.8
622.23,870.5
622.362,868.0
622.494,869.8
622.627,869.4
622.759,869.1
622.891,870.7
623.024,868.5
623.156,866.9
623.288,867.2
623.42,869.5
623.553,869.3
623.685,867.4
623.817,867.4
623.949,866.9
624.082,868.7
624.214,867.7
624.346,869.7
624.479,870.1
624.611,870.3
624.743,871.9
624.875,870.9
625.007,869.0
625.14,868.8
625.272,868.8
625.404,869.6
625.536,869.5
625.669,869.6
625.801,869.6
625.933,871.9
626.065,873.2
626.197,873.0
626.33,874.6
626.462,874.9
626.594,880.4
626.726,880.7
626.858,893.4
626.99,910.9
627.123,926.7
627.255,949.1
627.387,955.7
627.519,951.7
627.651,946.5
627.783,940.9
627.916,928.8
628.048,929.0
628.18,923.3
628.312,928.7
628.444,937.1
628.576,949.5
628.708,961.9
628.84,974.6
628.973,990.2
629.105,1007.6
629.237,1025.8
629.369,1034.4
629.501,1037.5
629.633,1039.4
629.765,1034.5
629.897,1020.5
630.029,1012.2
630.161,1002.3
630.294,990.6
630.426,981.1
630.558,970.5
630.69,965.3
630.822,956.4
630.954,947.5
631.086,934.4
631.218,921.1
631.35,917.8
631.482,905.8
631.614,904.3
631.746,905.8
631.878,905.3
632.01,901.2
632.142,910.4
632.274,922.7
632.406,930.9
632.538,919.8
632.67,906.0
632.802,895.0
632.934,892.7
633.066,897.0
633.198,910.2
633.33,925.0
633.462,926.2
633.594,907.4
633.726,902.8
633.858,901.5
633.99,907.8
634.122,917.7
634.254,942.9
634.386,965.6
634.518,1002.3
634.65,1037.8
634.782,1063.1
634.914,1071.8
635.046,1093.3
635.178,1155.7
635.31,1271.2
635.442,1326.6
635.574,1316.4
635.706,1310.4
635.838,1270.3
635.97,1193.6
636.102,1108.2
636.234,1042.6
636.365,999.7
636.497,958.1
636.629,943.4
636.761,930.3
636.893,916.6
637.025,911.5
637.157,899.4
637.289,898.4
637.421,896.3
637.553,898.4
637.685,896.9
637.816,889.0
637.948,885.5
638.08,881.4
638.212,880.4
638.344,880.3
638.476,880.0
638.608,878.1
638.74,877.7
638.871,877.7
639.003,879.8
639.135,878.5
639.267,883.5
639.399,879.4
639.531,881.3
639.662,883.3
639.794,892.3
639.926,893.9
640.058,890.4
640.19,888.0
640.322,878.8
640.453,879.8
640.585,876.6
640.717,878.6
640.849,879.8
640.981,878.3
641.113,881.3
641.244,883.9
641.376,888.1
641.508,887.6
641.64,886.3
641.772,886.0
641.903,881.6
642.035,876.6
642.167,875.5
642.299,875.3
642.43,877.4
642.562,876.1
642.694,875.4
642.826,873.0
642.958,874.1
643.089,875.3
643.221,874.7
643.353,872.1
643.485,874.8
643.616,872.7
643.748,874.6
643.88,872.0
644.012,870.9
644.143,874.5
644.275,875.4
644.407,871.7
644.538,873.2
644.67,873.8
644.802,870.5
644.934,873.2
645.065,875.6
645.197,871.4
645.329,876.9
645.461,874.4
645.592,872.7
645.724,874.9
645.856,871.5
645.987,875.1
646.119,876.5
646.251,869.8
646.382,874.3
646.514,874.4
646.646,872.5
646.777,871.4
646.909,874.9
647.041,875.4
647.172,876.7
647.304,874.8
647.436,872.8
647.567,872.2
647.699,873.6
647.831,873.7
647.962,874.6
648.094,874.8
648.226,874.2
648.357,877.1
648.489,873.3
648.621,876.2
648.752,875.1
648.884,877.6
649.016,871.6
649.147,874.4
649.279,872.6
649.411,876.7
649.542,872.0
649.674,876.0
649.805,875.6
649.937,873.0
650.069,871.8
650.2,873.7
650.332,879.0
650.463,877.8
650.595,875.0
650.727,873.6
650.858,874.8
650.99,877.3
651.121,874.5
651.253,875.4
651.385,876.7
651.516,874.7
651.648,875.1
651.779,873.6
651.911,879.3
652.043,878.6
652.174,877.7
652.306,874.5
652.437,873.9
652.569,876.3
652.7,876.0
652.832,879.5
652.963,872.9
653.095,877.0
653.227,877.6
653.358,877.1
653.49,874.6
653.621,876.1
653.753,876.7
653.884,875.3
654.016,878.5
654.147,875.8
654.279,876.3
654.41,880.0
654.542,879.4
654.674,876.6
654.805,877.4
654.937,878.2
655.068,881.8
655.2,877.9
655.331,876.0
655.463,876.3
655.594,875.6
655.726,876.6
655.857,876.2
655.989,879.9
656.12,880.5
656.252,878.6
656.383,877.2
656.515,878.7
656.646,876.4
656.778,876.3
656.909,877.8
657.041,875.7
657.172,877.1
657.304,878.8
657.435,879.6
657.567,878.2
657.698,878.1
657.829,877.5
657.961,880.7
658.092,879.3
658.224,877.2
658.355,878.8
658.487,881.4
658.618,876.6
658.75,880.4
658.881,880.5
659.013,879.8
659.144,879.6
659.275,879.4
659.407,882.6
659.538,877.1
659.67,881.2
659.801,879.1
659.933,880.1
660.064,878.9
660.196,878.8
660.327,877.4
660.458,879.2
660.59,881.2
660.721,880.0
660.853,878.4
660.984,878.7
661.116,882.1
661.247,879.3
661.378,880.5
661.51,878.9
661.641,880.5
661.773,879.7
661.904,881.3
662.035,879.5
662.167,880.1
662.298,882.4
662.43,877.5
662.561,877.8
662.692,881.2
662.824,882.0
662.955,879.7
663.087,880.7
