cm-1,Intensity
-123.878,1850.25
-120.866,1850.8
-117.855,1851.5
-114.845,1850.05
-111.836,1851.8
-108.828,1851.3
-105.821,1851.25
-102.815,1852.1
-99.8104,1851.9
-96.8065,1850.2
-93.8036,1851.4
-90.8016,1850.15
-87.8007,1851.05
-84.8008,1851.05
-81.8019,1850.15
-78.8039,1850.7
-75.807,1850.55
-72.8111,1850.8
-69.8161,1851.4
-66.8222,1851.1
-63.8293,1850.9
-60.8373,1850.55
-57.8464,1851.1
-54.8564,1851.25
-51.8675,1851.15
-48.8795,1851.2
-45.8926,1851.15
-42.9066,1852.05
-39.9216,1851.4
-36.9377,1851.1
-33.9547,1852.25
-30.9727,1852.6
-27.9917,1853.05
-25.0117,1853.8
-22.0326,1855.5
-19.0546,1861.1
-16.0776,1878.85
-13.1015,1950.2
-10.1265,2222.85
-7.1524,2762.05
-4.17932,3509.0
-1.20723,3719.95
1.76388,3197.9
4.734,2507.2
7.70313,1999.45
10.6713,1865.55
13.6384,1853.6
16.6046,1853.4
19.5698,1853.2
22.534,1851.3
25.4972,1851.35
28.4595,1852.3
31.4207,1851.6
34.381,1850.25
37.3403,1851.85
40.2986,1851.55
43.256,1853.15
46.2123,1853.95
49.1677,1858.15
52.1221,1867.55
55.0755,1893.1
58.0279,1917.0
60.9794,1948.0
63.9299,1966.95
66.8794,1974.2
69.8279,1979.8
72.7754,1979.65
75.722,1981.35
78.6676,1982.95
81.6122,1977.85
84.5559,1980.85
87.4985,1992.8
90.4402,2003.2
93.381,2023.1
96.3207,2041.05
99.2595,2051.75
102.197,2056.95
105.134,2054.45
108.07,2050.35
111.005,2026.75
113.939,2008.05
116.872,1983.2
119.804,1968.5
122.735,1958.1
125.665,1954.6
128.594,1944.45
131.522,1940.75
134.449,1941.3
137.375,1938.05
140.301,1936.55
143.225,1933.05
146.148,1933.4
149.07,1935.75
151.992,1939.75
154.912,1949.25
157.832,1952.2
160.75,1957.75
163.668,1968.3
166.584,1972.4
169.5,1978.05
172.414,1979.65
175.328,1987.65
178.241,1972.0
181.153,1965.4
184.063,1959.95
186.973,1951.35
189.882,1946.2
192.79,1943.45
195.697,1935.35
198.603,1935.95
201.508,1938.55
204.412,1934.4
207.315,1929.5
210.217,1928.3
213.119,1933.0
216.019,1927.35
218.918,1932.9
221.816,1930.6
224.714,1937.2
227.61,1933.65
230.506,1934.6
233.4,1938.65
236.294,1939.65
239.187,1942.0
242.078,1946.0
244.969,1947.9
247.859,1945.0
250.748,1950.45
253.636,1949.15
256.523,1948.85
259.409,1941.1
262.294,1933.3
265.178,1929.25
268.061,1928.7
270.943,1929.65
273.824,1928.5
276.705,1923.8
279.584,1923.95
282.463,1920.9
285.34,1917.55
288.217,1919.95
291.092,1920.65
293.967,1922.55
296.841,1921.75
299.713,1923.05
302.585,1927.8
305.456,1929.45
308.326,1930.55
311.195,1936.2
314.063,1942.2
316.93,1944.3
319.797,1945.2
322.662,1938.25
325.526,1935.3
328.389,1933.25
331.252,1934.1
334.113,1927.25
336.974,1928.5
339.834,1923.8
342.692,1922.25
345.55,1924.1
348.407,1923.8
351.263,1921.8
354.118,1916.45
356.972,1919.25
359.825,1926.15
362.677,1927.1
365.529,1921.6
368.379,1920.75
371.228,1929.0
374.077,1927.45
376.924,1932.55
379.771,1937.15
382.616,1940.45
385.461,1948.9
388.305,1976.4
391.148,2012.45
393.99,2039.85
396.831,2063.95
399.671,2063.1
402.51,2035.2
405.348,2003.6
408.186,1972.25
411.022,1958.35
413.858,1950.05
416.692,1938.4
419.526,1938.9
422.359,1938.75
425.19,1938.45
428.021,1936.15
430.851,1931.7
433.68,1933.05
436.508,1930.9
439.335,1937.8
442.162,1944.1
444.987,1953.4
447.811,1954.45
450.635,1965.95
453.458,1966.9
456.279,1970.95
459.1,1959.15
461.92,1951.5
464.739,1944.8
467.557,1939.2
470.374,1938.4
473.19,1937.0
476.005,1930.7
478.82,1933.8
481.633,1921.9
484.445,1925.2
487.257,1923.55
490.068,1927.4
492.878,1927.05
495.686,1925.65
498.494,1929.8
501.301,1928.25
504.107,1927.65
506.913,1931.25
509.717,1933.55
512.52,1933.8
515.323,1939.5
518.124,1944.45
520.925,1958.7
523.725,1956.55
526.524,1961.25
529.322,1962.5
532.119,1954.65
534.915,1946.4
537.71,1939.85
540.504,1935.8
543.298,1930.4
546.09,1931.6
548.882,1930.45
551.673,1930.0
554.462,1929.15
557.251,1928.65
560.039,1928.35
562.826,1926.35
565.613,1924.75
568.398,1923.85
571.182,1922.1
573.966,1924.7
576.748,1924.7
579.53,1923.1
582.311,1923.65
585.091,1928.9
587.87,1919.95
590.648,1923.1
593.425,1919.8
596.201,1919.35
598.977,1922.05
601.751,1922.0
604.525,1922.5
607.298,1920.7
610.069,1922.7
612.84,1920.45
615.61,1920.4
618.38,1924.65
621.148,1921.55
623.915,1922.45
626.682,1923.35
629.447,1919.25
632.212,1922.1
634.976,1924.7
637.739,1924.85
640.501,1926.15
643.262,1922.3
646.022,1925.2
648.781,1925.6
651.54,1922.2
654.297,1924.4
657.054,1918.85
659.81,1925.15
662.565,1926.75
665.319,1925.7
668.072,1927.1
670.824,1926.65
673.575,1924.9
676.326,1930.1
679.075,1923.15
681.824,1928.05
684.572,1924.9
687.319,1926.35
690.065,1926.2
692.81,1925.0
695.554,1923.45
698.298,1919.9
701.04,1920.1
703.782,1919.8
706.522,1920.65
709.262,1925.9
712.001,1928.55
714.739,1924.15
717.477,1922.85
720.213,1925.5
722.948,1927.4
725.683,1925.05
728.417,1920.55
731.15,1924.35
733.882,1924.45
736.613,1925.4
739.343,1926.4
742.072,1930.4
744.801,1925.4
747.528,1928.85
750.255,1925.8
752.981,1929.45
755.706,1932.2
758.43,1930.5
761.153,1934.1
763.875,1933.95
766.597,1931.8
769.317,1938.25
772.037,1941.45
774.756,1942.05
777.474,1942.55
780.191,1939.8
782.907,1938.9
785.623,1944.0
788.337,1949.25
791.051,1956.3
793.764,1966.7
796.475,1985.1
799.186,2027.5
801.897,2072.35
804.606,2140.95
807.314,2190.2
810.022,2192.95
812.729,2151.4
815.434,2081.65
818.139,2031.25
820.844,2002.75
823.547,1999.65
826.249,2007.2
828.951,2020.55
831.651,2045.3
834.351,2085.15
837.05,2119.75
839.748,2167.35
842.445,2173.6
845.142,2127.45
847.837,2064.2
850.532,2013.0
853.225,1988.8
855.918,1969.6
858.61,1968.0
861.302,1957.4
863.992,1959.9
866.681,1952.95
869.37,1950.9
872.058,1946.6
874.745,1945.3
877.431,1948.75
880.116,1947.9
882.8,1943.85
885.484,1940.0
888.166,1946.15
890.848,1950.2
893.529,1955.0
896.209,1967.4
898.888,1964.65
901.566,1962.25
904.244,1960.2
906.921,1948.25
909.596,1946.85
912.271,1941.95
914.945,1943.75
917.619,1944.8
920.291,1942.2
922.963,1940.7
925.633,1945.65
928.303,1946.5
930.972,1947.0
933.64,1957.95
936.308,1968.1
938.974,1974.65
941.64,1980.0
944.304,1979.0
946.968,1967.8
949.631,1967.35
952.294,1961.6
954.955,1962.05
957.615,1964.6
960.275,1964.45
962.934,1979.6
965.592,2001.25
968.249,2036.05
970.905,2066.7
973.561,2064.5
976.215,2054.8
978.869,2020.25
981.522,1988.1
984.174,1972.35
986.826,1966.35
989.476,1976.7
992.126,1994.5
994.774,2015.55
997.422,2031.55
1000.07,2027.65
1002.72,2020.1
1005.36,1999.3
1008.01,1976.45
1010.65,1964.3
1013.29,1969.65
1015.93,1961.4
1018.58,1960.65
1021.22,1968.8
1023.86,1967.35
1026.49,1973.35
1029.13,1985.75
1031.77,2003.05
1034.4,2011.75
1037.04,2017.1
1039.67,2014.7
1042.31,2009.25
1044.94,2004.3
1047.57,1986.05
1050.2,1976.8
1052.83,1963.7
1055.46,1959.3
1058.09,1956.85
1060.72,1950.05
1063.35,1952.0
1065.97,1947.6
1068.6,1949.4
1071.22,1947.4
1073.85,1942.75
1076.47,1947.95
1079.09,1945.9
1081.71,1949.5
1084.33,1949.5
1086.95,1949.85
1089.57,1951.05
1092.19,1956.75
1094.81,1959.65
1097.42,1961.35
1100.04,1959.6
1102.65,1970.2
1105.27,1970.95
1107.88,1969.65
1110.49,1959.55
1113.1,1957.25
1115.71,1952.55
1118.32,1951.75
1120.93,1950.6
1123.54,1954.1
1126.15,1950.55
1128.75,1954.5
1131.36,1956.95
1133.97,1960.3
1136.57,1973.6
1139.17,1987.45
1141.77,2016.2
1144.38,2056.15
1146.98,2090.85
1149.58,2128.9
1152.18,2167.15
1154.77,2169.95
1157.37,2149.55
1159.97,2128.05
1162.56,2119.9
1165.16,2112.8
1167.75,2111.65
1170.35,2090.25
1172.94,2049.25
1175.53,2016.8
1178.12,1986.95
1180.71,1970.4
1183.3,1965.75
1185.89,1961.6
1188.48,1960.7
1191.06,1952.95
1193.65,1954.2
1196.23,1956.75
1198.82,1962.75
1201.4,1971.8
1203.99,1969.3
1206.57,1971.8
1209.15,1985.55
1211.73,2000.4
1214.31,2023.8
1216.89,2034.2
1219.46,2045.1
1222.04,2036.7
1224.62,2018.35
1227.19,1996.45
1229.77,1982.5
1232.34,1975.2
1234.92,1975.1
1237.49,1972.3
1240.06,1968.7
1242.63,1966.7
1245.2,1960.65
1247.77,1967.95
1250.34,1980.05
1252.9,1985.4
1255.47,1985.45
1258.04,1981.15
1260.6,1975.35
1263.17,1973.2
1265.73,1958.4
1268.29,1963.55
1270.85,1961.25
1273.41,1961.5
1275.97,1956.9
1278.53,1965.0
1281.09,1969.15
1283.65,1966.15
1286.21,1977.7
1288.76,1979.05
1291.32,1981.35
1293.87,1993.2
1296.43,2001.25
1298.98,2004.05
1301.53,2002.75
1304.08,2000.55
1306.63,1998.35
1309.18,2002.15
1311.73,1999.85
1314.28,2018.2
1316.83,2038.05
1319.38,2060.85
1321.92,2106.6
1324.47,2163.7
1327.01,2222.05
1329.55,2233.2
1332.1,2230.45
1334.64,2173.45
1337.18,2104.75
1339.72,2062.7
1342.26,2033.45
1344.8,2021.75
1347.34,2021.95
1349.87,2019.45
1352.41,2033.25
1354.95,2055.7
1357.48,2074.5
1360.01,2082.1
1362.55,2079.7
1365.08,2055.7
1367.61,2033.35
1370.14,2019.4
1372.67,2011.65
1375.2,2004.7
1377.73,1994.15
1380.26,1991.15
1382.78,1977.4
1385.31,1969.45
1387.84,1958.8
1390.36,1957.5
1392.88,1954.65
1395.41,1953.9
1397.93,1953.25
1400.45,1952.6
1402.97,1950.75
1405.49,1952.3
1408.01,1953.7
1410.53,1958.15
1413.05,1954.2
1415.56,1950.55
1418.08,1953.45
1420.59,1962.9
1423.11,1971.8
1425.62,1979.25
1428.14,2002.05
1430.65,2032.55
1433.16,2066.3
1435.67,2090.75
1438.18,2102.25
1440.69,2093.1
1443.2,2091.9
1445.7,2124.15
1448.21,2150.65
1450.72,2203.05
1453.22,2269.4
1455.72,2311.4
1458.23,2344.45
1460.73,2326.9
1463.23,2300.8
1465.73,2221.65
1468.23,2142.1
1470.73,2078.85
1473.23,2040.95
1475.73,2002.05
1478.23,1985.45
1480.72,1977.6
1483.22,1976.4
1485.72,1967.75
1488.21,1958.65
1490.7,1958.95
1493.2,1953.8
1495.69,1952.05
1498.18,1955.25
1500.67,1956.4
1503.16,1957.6
1505.65,1950.9
1508.14,1948.7
1510.62,1946.75
1513.11,1948.55
1515.59,1954.95
1518.08,1951.2
1520.56,1949.45
1523.05,1952.75
1525.53,1950.0
1528.01,1950.1
1530.49,1948.35
1532.97,1949.4
1535.45,1953.7
1537.93,1951.55
1540.41,1953.85
1542.89,1951.1
1545.36,1953.1
1547.84,1946.55
1550.31,1950.75
1552.79,1956.45
1555.26,1952.2
1557.73,1953.3
1560.21,1951.75
1562.68,1956.35
1565.15,1955.8
1567.62,1952.9
1570.09,1956.3
1572.56,1954.35
1575.02,1948.7
1577.49,1954.5
1579.95,1950.85
1582.42,1956.9
1584.88,1956.4
1587.35,1951.55
1589.81,1953.95
1592.27,1954.6
1594.73,1954.5
1597.19,1956.5
1599.65,1954.35
1602.11,1955.85
1604.57,1958.75
1607.03,1960.35
1609.49,1963.75
1611.94,1959.05
1614.4,1959.6
1616.85,1959.45
1619.31,1962.9
1621.76,1963.45
1624.21,1966.3
1626.66,1963.5
1629.11,1962.35
1631.56,1967.5
1634.01,1960.3
1636.46,1964.0
1638.91,1960.4
1641.36,1965.1
1643.8,1966.55
1646.25,1969.65
1648.69,1963.55
1651.14,1967.3
1653.58,1969.0
1656.02,1972.15
1658.46,1969.85
1660.9,1967.15
1663.35,1968.9
1665.78,1971.55
1668.22,1969.5
1670.66,1970.15
1673.1,1974.55
1675.54,1971.0
1677.97,1975.7
1680.41,1973.8
1682.84,1974.75
1685.27,1981.3
1687.71,1978.45
1690.14,1980.85
1692.57,1979.2
1695.0,1982.35
1697.43,1980.8
1699.86,1982.55
1702.29,1986.7
1704.71,1980.3
1707.14,1986.95
1709.57,1987.5
1711.99,1982.15
1714.42,1982.05
1716.84,1987.65
1719.26,1984.85
1721.69,1984.6
1724.11,1983.5
1726.53,1980.95
1728.95,1980.8
1731.37,1988.0
1733.79,1990.15
1736.21,1985.15
1738.62,1993.05
1741.04,1991.6
1743.46,1987.8
1745.87,1995.45
1748.28,1992.85
1750.7,1999.4
1753.11,1998.6
1755.52,1995.05
1757.93,2001.05
1760.34,1987.35
1762.75,2001.2
1765.16,2004.4
1767.57,2003.6
1769.98,2004.2
1772.39,1994.85
1774.79,2003.35
1777.2,2003.55
1779.6,2006.35
1782.01,2005.35
1784.41,2012.55
1786.81,2005.55
1789.21,2004.5
1791.62,2006.6
1794.02,2012.6
1796.41,2012.55
1798.81,2011.65
1801.21,2012.5
1803.61,2011.35
1806.01,2006.95
1808.4,2006.85
1810.8,2008.5
1813.19,2012.7
1815.59,2009.6
1817.98,2010.9
1820.37,2006.5
1822.76,2010.55
1825.15,2016.2
1827.54,2018.55
1829.93,2011.55
1832.32,2009.1
1834.71,2012.0
1837.1,2020.15
1839.48,2025.25
1841.87,2012.85
1844.25,2021.05
1846.64,2025.25
1849.02,2013.45
1851.4,2024.95
1853.79,2025.05
1856.17,2029.65
1858.55,2026.4
1860.93,2026.15
1863.31,2032.25
1865.69,2035.7
1868.06,2037.55
1870.44,2040.45
1872.82,2030.9
1875.19,2034.25
1877.57,2034.45
1879.94,2035.95
1882.31,2032.4
1884.69,2033.65
1887.06,2036.55
1889.43,2036.25
1891.8,2026.5
1894.17,2030.3
1896.54,2032.7
1898.91,2033.55
1901.28,2044.9
1903.64,2048.6
1906.01,2045.35
1908.38,2037.4
1910.74,2034.65
1913.1,2037.45
1915.47,2043.35
1917.83,2051.2
1920.19,2050.85
1922.55,2038.8
1924.91,2044.1
1927.27,2044.3
1929.63,2042.05
1931.99,2041.75
1934.35,2039.55
1936.71,2035.65
1939.06,2040.4
1941.42,2045.8
1943.77,2050.4
1946.13,2047.4
1948.48,2044.7
1950.83,2041.3
1953.19,2034.05
1955.54,2036.6
1957.89,2037.1
1960.24,2037.55
1962.59,2041.5
1964.93,2048.75
1967.28,2050.2
1969.63,2038.0
1971.98,2041.65
1974.32,2041.8
1976.67,2040.65
1979.01,2039.25
1981.35,2040.0
1983.7,2039.25
1986.04,2036.4
1988.38,2044.6
1990.72,2041.65
1993.06,2038.75
1995.4,2043.8
1997.74,2044.5
2000.08,2048.85
2002.41,2043.4
2004.75,2043.0
2007.09,2045.8
2009.42,2036.25
2011.75,2037.3
2014.09,2041.55
2016.42,2044.65
2018.75,2043.1
2021.08,2046.85
2023.42,2047.65
2025.75,2047.8
2028.08,2039.15
2030.4,2034.4
2032.73,2043.7
2035.06,2047.9
2037.39,2041.9
2039.71,2040.65
2042.04,2041.1
2044.36,2038.95
2046.69,2038.75
2049.01,2034.85
2051.33,2040.3
2053.65,2034.35
2055.97,2038.25
2058.29,2040.65
2060.61,2040.1
2062.93,2031.8
2065.25,2037.9
2067.57,2043.85
2069.88,2041.9
2072.2,2034.3
2074.52,2032.6
2076.83,2033.5
2079.15,2035.0
2081.46,2042.65
2083.77,2032.6
2086.08,2032.4
2088.39,2030.9
2090.7,2037.05
2093.01,2034.0
2095.32,2033.9
2097.63,2029.75
2099.94,2028.45
2102.25,2038.15
2104.55,2027.25
2106.86,2026.95
2109.16,2030.15
2111.47,2031.75
2113.77,2036.2
2116.08,2028.2
2118.38,2022.1
2120.68,2025.15
2122.98,2025.7
2125.28,2030.9
2127.58,2028.95
2129.88,2023.7
2132.18,2030.0
2134.47,2025.0
2136.77,2023.5
2139.07,2026.55
2141.36,2020.2
2143.66,2024.5
2145.95,2016.7
2148.24,2014.5
2150.54,2012.2
2152.83,2017.4
2155.12,2025.35
2157.41,2026.75
2159.7,2025.85
2161.99,2012.1
2164.28,2019.15
2166.57,2018.45
2168.85,2022.85
2171.14,2012.65
2173.43,2014.15
2175.71,2019.4
2178.0,2018.0
2180.28,2021.25
2182.56,2026.55
2184.84,2022.55
2187.13,2005.3
2189.41,2014.7
2191.69,2013.3
2193.97,2011.75
2196.25,2007.6
2198.52,2016.2
2200.8,2009.4
2203.08,2017.55
2205.36,2017.55
2207.63,2009.85
2209.91,2008.95
2212.18,2011.15
2214.45,2009.9
2216.73,2007.85
2219.0,2012.3
2221.27,2022.0
2223.54,2008.3
2225.81,2004.35
2228.08,2008.85
2230.35,2007.55
2232.62,2007.0
2234.89,2009.15
2237.15,2009.05
2239.42,2010.0
2241.68,2008.15
2243.95,2009.6
2246.21,2014.05
2248.48,2007.55
2250.74,2012.4
2253.0,2012.4
2255.26,2013.05
2257.52,2007.1
2259.78,2011.8
2262.04,2006.05
2264.3,2006.1
2266.56,2005.45
2268.82,2004.3
2271.07,2004.9
2273.33,2000.1
2275.58,2000.85
2277.84,1997.0
2280.09,2000.35
2282.35,2004.7
2284.6,2009.35
2286.85,1999.7
2289.1,2000.15
2291.35,2001.85
2293.6,1998.6
2295.85,1998.8
2298.1,1998.8
2300.35,2005.75
2302.6,2000.95
2304.84,2001.75
2307.09,2008.2
2309.33,2008.75
2311.58,2000.9
2313.82,2001.25
2316.07,2003.25
2318.31,2002.2
2320.55,1999.45
2322.79,2000.4
2325.03,2005.8
2327.27,2003.1
2329.51,1999.35
2331.75,2003.6
2333.99,2001.65
2336.23,2000.3
2338.46,2001.55
2340.7,1997.2
2342.93,1999.35
2345.17,2002.95
2347.4,1999.0
2349.64,1995.5
2351.87,1991.6
2354.1,1988.1
2356.33,1995.45
2358.56,1998.85
2360.79,1999.55
2363.02,1997.8
2365.25,1986.75
2367.48,1997.35
2369.71,1996.9
2371.93,1994.85
2374.16,1988.7
2376.38,1987.7
2378.61,1986.55
2380.83,1992.1
2383.06,1989.65
2385.28,1988.5
2387.5,1999.75
2389.72,1999.1
2391.94,1993.75
2394.16,1991.05
2396.38,1992.95
2398.6,1997.15
2400.82,1988.5
2403.04,1983.9
2405.26,1985.85
2407.47,1984.35
2409.69,1989.7
2411.9,1990.45
2414.12,1994.35
2416.33,1992.9
2418.54,1982.15
2420.76,1989.75
2422.97,1995.9
2425.18,1985.2
2427.39,1985.25
2429.6,1987.8
2431.81,1989.45
2434.02,1994.4
2436.22,1990.25
2438.43,1985.9
2440.64,1988.1
2442.84,1988.8
2445.05,1986.15
2447.25,1980.15
2449.46,1988.4
2451.66,1983.85
2453.86,1986.75
2456.06,1981.25
2458.27,1984.4
2460.47,1983.7
2462.67,1984.45
2464.87,1985.65
2467.06,1981.05
2469.26,1978.15
2471.46,1977.05
2473.66,1978.35
2475.85,1982.7
2478.05,1981.15
2480.24,1978.2
2482.44,1975.05
2484.63,1974.3
2486.82,1978.4
2489.02,1983.5
2491.21,1978.1
2493.4,1971.7
2495.59,1974.1
2497.78,1969.45
2499.97,1974.2
2502.16,1982.25
2504.34,1984.75
2506.53,1979.2
2508.72,1982.6
2510.9,1986.6
2513.09,1981.95
2515.27,1984.5
2517.46,1982.75
2519.64,1980.1
2521.82,1977.85
2524.0,1980.5
2526.19,1982.95
2528.37,1986.0
2530.55,1982.45
2532.73,1983.1
2534.9,1979.5
2537.08,1985.8
2539.26,1984.45
2541.44,1975.4
2543.61,1976.25
2545.79,1976.75
2547.96,1981.35
2550.14,1980.7
2552.31,1977.3
2554.48,1981.75
2556.66,1974.3
2558.83,1980.25
2561.0,1977.85
2563.17,1980.5
2565.34,1974.2
2567.51,1977.2
2569.68,1978.75
2571.85,1978.8
2574.01,1981.5
2576.18,1986.1
2578.35,1983.35
2580.51,1985.3
2582.68,1985.55
2584.84,1980.75
2587.0,1982.6
2589.17,1985.85
2591.33,1987.85
2593.49,1984.5
2595.65,1988.55
2597.81,1988.25
2599.97,1987.5
2602.13,1982.05
2604.29,1984.05
2606.45,1990.75
2608.6,1990.65
2610.76,1988.75
2612.92,1987.25
2615.07,1985.95
2617.23,1977.1
2619.38,1984.95
2621.53,1988.75
2623.69,1987.45
2625.84,1984.15
2627.99,1984.15
2630.14,1983.45
2632.29,1988.2
2634.44,1982.85
2636.59,1990.8
2638.74,1998.9
2640.89,1988.3
2643.03,1995.5
2645.18,2001.15
2647.33,2015.25
2649.47,2016.15
2651.62,2019.8
2653.76,2023.55
2655.9,2018.7
2658.05,2019.7
2660.19,2012.6
2662.33,2013.85
2664.47,2016.8
2666.61,2013.5
2668.75,2013.2
2670.89,2004.85
2673.03,2008.5
2675.17,2012.55
2677.3,2011.95
2679.44,2007.15
2681.58,2008.5
2683.71,2008.85
2685.84,2015.4
2687.98,2005.4
2690.11,2014.15
2692.25,2014.9
2694.38,2011.7
2696.51,2016.2
2698.64,2021.7
2700.77,2032.5
2702.9,2046.1
2705.03,2055.65
2707.16,2059.95
2709.29,2073.2
2711.41,2085.05
2713.54,2087.0
2715.67,2096.9
2717.79,2113.8
2719.92,2133.2
2722.04,2140.35
2724.16,2150.65
2726.29,2144.2
2728.41,2123.95
2730.53,2109.95
2732.65,2090.6
2734.77,2077.65
2736.89,2072.15
2739.01,2056.95
2741.13,2044.85
2743.25,2035.55
2745.36,2036.55
2747.48,2037.05
2749.6,2030.65
2751.71,2027.5
2753.83,2018.55
2755.94,2011.85
2758.06,2004.4
2760.17,2002.75
2762.28,2002.55
2764.39,2003.8
2766.5,1995.5
2768.61,1991.95
2770.72,1986.3
2772.83,1988.8
2774.94,1986.2
2777.05,1992.2
2779.16,1991.1
2781.27,1981.65
2783.37,1991.75
2785.48,1992.05
2787.58,1995.1
2789.69,1997.1
2791.79,2000.5
2793.89,2006.8
2796.0,2007.55
2798.1,2003.4
2800.2,2003.0
2802.3,2008.75
2804.4,2012.1
2806.5,2016.85
2808.6,2030.4
2810.7,2030.4
2812.8,2039.85
2814.89,2050.25
2816.99,2056.25
2819.09,2072.55
2821.18,2106.35
2823.28,2130.3
2825.37,2175.15
2827.46,2220.95
2829.56,2316.15
2831.65,2449.9
2833.74,2618.35
2835.83,2808.6
2837.92,2971.75
2840.01,3061.4
2842.1,3008.2
2844.19,2916.0
2846.28,2789.2
2848.37,2664.35
2850.45,2552.45
2852.54,2500.2
2854.63,2507.9
2856.71,2533.0
2858.8,2676.65
2860.88,2861.15
2862.96,3150.25
2865.05,3405.1
2867.13,3583.65
2869.21,3666.75
2871.29,3703.35
2873.37,3804.0
2875.45,3885.3
2877.53,4021.8
2879.61,4216.9
2881.69,4346.75
2883.76,4382.6
2885.84,4370.95
2887.92,4307.7
2889.99,4209.35
2892.07,4022.55
2894.14,3903.75
2896.22,3862.25
2898.29,3808.1
2900.36,3831.85
2902.43,3877.75
2904.5,3881.9
2906.58,3754.3
2908.65,3748.7
2910.72,3672.55
2912.78,3506.5
2914.85,3393.6
2916.92,3357.65
2918.99,3307.65
2921.05,3312.05
2923.12,3274.35
2925.19,3242.0
2927.25,3285.05
2929.32,3230.25
2931.38,3090.4
2933.44,2938.55
2935.5,2812.7
2937.57,2725.8
2939.63,2660.05
2941.69,2661.7
2943.75,2702.55
2945.81,2805.65
2947.87,2959.65
2949.93,3077.9
2951.98,3159.25
2954.04,3236.95
2956.1,3279.95
2958.15,3254.6
2960.21,3226.7
2962.26,3145.6
2964.32,3071.15
2966.37,2940.7
2968.42,2816.7
2970.48,2696.1
2972.53,2572.75
2974.58,2463.75
2976.63,2382.6
2978.68,2300.45
2980.73,2235.7
2982.78,2187.3
2984.83,2146.4
2986.87,2124.2
2988.92,2096.75
2990.97,2077.7
2993.01,2076.95
2995.06,2065.85
2997.1,2051.25
2999.15,2050.3
3001.19,2037.65
3003.24,2028.95
3005.28,2024.5
3007.32,2016.0
3009.36,2011.65
3011.4,2011.85
3013.44,2006.65
3015.48,2007.3
3017.52,1995.1
3019.56,1993.75
3021.6,1995.25
3023.63,1999.0
3025.67,1990.9
3027.71,1983.0
3029.74,1983.2
3031.78,1977.8
3033.81,1977.4
3035.85,1975.45
3037.88,1981.1
3039.91,1982.55
3041.94,1983.8
3043.97,1978.15
3046.01,1977.55
3048.04,1981.05
3050.07,1974.45
3052.09,1971.85
3054.12,1973.15
3056.15,1974.8
3058.18,1967.85
3060.2,1972.8
3062.23,1972.5
3064.26,1972.3
3066.28,1968.0
3068.31,1965.4
3070.33,1970.8
3072.35,1971.8
