nm,Intensity
526.486,831.2
526.622,830.5
526.759,830.5
526.896,830.3
527.033,831.1
527.169,829.8
527.306,831.0
527.443,830.4
527.579,831.0
527.716,830.5
527.853,830.2
527.989,829.2
528.126,830.6
528.263,829.9
528.399,829.2
528.536,830.5
528.672,830.1
528.809,831.0
528.946,831.8
529.082,830.4
529.219,830.5
529.355,831.1
529.492,830.3
529.628,831.0
529.765,830.7
529.901,830.7
530.038,831.1
530.174,830.3
530.311,830.2
530.447,830.7
530.584,830.9
530.72,830.4
530.857,830.3
530.993,830.9
531.13,829.9
531.266,829.9
531.403,831.6
531.539,830.3
531.676,830.0
531.812,830.2
531.948,833.9
532.085,848.8
532.221,862.1
532.358,839.1
532.494,829.9
532.63,830.2
532.767,830.8
532.903,831.0
533.039,829.4
533.176,830.8
533.312,831.6
533.448,832.0
533.585,831.2
533.721,847.9
533.857,936.2
533.993,1104.7
534.13,1187.7
534.266,1195.5
534.402,1172.1
534.539,1159.4
534.675,1146.0
534.811,1135.0
534.947,1121.6
535.083,1095.6
535.22,1089.2
535.356,1083.2
535.492,1076.6
535.628,1075.9
535.764,1066.6
535.901,1059.0
536.037,1056.4
536.173,1052.0
536.309,1049.8
536.445,1046.7
536.581,1045.7
536.717,1048.4
536.854,1048.0
536.99,1041.8
537.126,1041.4
537.262,1048.5
537.398,1044.7
537.534,1043.2
537.67,1043.5
537.806,1046.2
537.942,1040.1
538.078,1041.2
538.214,1048.4
538.35,1050.0
538.486,1048.6
538.622,1047.2
538.758,1053.8
538.894,1054.0
539.03,1056.8
539.166,1053.3
539.302,1061.6
539.438,1062.9
539.574,1062.9
539.71,1066.2
539.846,1070.2
539.982,1071.3
540.118,1064.1
540.254,1064.1
540.39,1064.5
540.526,1060.6
540.662,1058.3
540.798,1065.4
540.933,1061.3
541.069,1057.8
541.205,1060.3
541.341,1061.4
541.477,1060.8
541.613,1064.5
541.749,1066.5
541.884,1063.1
542.02,1068.5
542.156,1071.4
542.292,1063.8
542.428,1066.8
542.563,1071.1
542.699,1066.4
542.835,1074.1
542.971,1068.9
543.106,1075.3
543.242,1073.9
543.378,1068.2
543.514,1080.8
543.649,1075.4
543.785,1083.7
543.921,1080.8
544.057,1082.5
544.192,1083.0
544.328,1078.9
544.464,1081.4
544.599,1079.2
544.735,1076.9
544.871,1083.2
545.006,1088.6
545.142,1079.9
545.278,1084.8
545.413,1082.6
545.549,1085.5
545.684,1084.8
545.82,1089.0
545.956,1089.6
546.091,1084.0
546.227,1088.0
546.362,1088.8
546.498,1095.1
546.634,1091.1
546.769,1097.8
546.905,1097.1
547.04,1094.2
547.176,1098.4
547.311,1094.2
547.447,1096.7
547.582,1097.4
547.718,1099.0
547.853,1092.1
547.989,1102.8
548.124,1098.0
548.26,1090.6
548.395,1093.7
548.531,1097.9
548.666,1101.4
548.802,1100.0
548.937,1104.8
549.072,1104.5
549.208,1106.2
549.343,1116.1
549.479,1106.8
549.614,1107.0
549.75,1108.5
549.885,1109.1
550.02,1101.7
550.156,1112.2
550.291,1112.1
550.426,1117.3
550.562,1122.6
550.697,1150.4
550.832,1140.8
550.968,1113.5
551.103,1111.0
551.238,1115.5
551.374,1124.1
551.509,1119.1
551.644,1120.4
551.78,1116.5
551.915,1115.2
552.05,1122.7
552.185,1118.4
552.321,1117.7
552.456,1122.2
552.591,1125.4
552.726,1127.8
552.862,1128.1
552.997,1130.0
553.132,1130.4
553.267,1121.6
553.403,1120.6
553.538,1132.4
553.673,1120.9
553.808,1128.1
553.943,1132.0
554.078,1127.3
554.214,1121.9
554.349,1134.8
554.484,1136.8
554.619,1137.6
554.754,1126.8
554.889,1136.0
555.024,1137.7
555.16,1137.2
555.295,1135.7
555.43,1145.9
555.565,1144.1
555.7,1142.7
555.835,1147.4
555.97,1141.2
556.105,1139.9
556.24,1145.2
556.375,1142.8
556.51,1148.7
556.645,1149.5
556.78,1149.9
556.915,1153.8
557.05,1156.6
557.185,1162.3
557.32,1161.2
557.455,1181.4
557.59,1204.1
557.725,1198.0
557.86,1178.9
557.995,1167.2
558.13,1157.3
558.265,1153.0
558.4,1153.3
558.535,1154.4
558.67,1160.1
558.805,1158.4
558.94,1151.6
559.075,1149.1
559.21,1150.8
559.345,1146.9
559.479,1153.9
559.614,1151.7
559.749,1156.5
559.884,1161.2
560.019,1153.8
560.154,1154.9
560.289,1157.9
560.424,1160.4
560.558,1161.3
560.693,1163.5
560.828,1161.5
560.963,1168.7
561.098,1161.3
561.232,1171.0
561.367,1166.4
561.502,1174.3
561.637,1168.8
561.772,1166.6
561.906,1172.4
562.041,1180.7
562.176,1177.7
562.311,1182.3
562.445,1176.6
562.58,1169.0
562.715,1173.3
562.85,1176.6
562.984,1179.6
563.119,1181.3
563.254,1182.8
563.388,1181.8
563.523,1181.2
563.658,1183.9
563.792,1189.4
563.927,1187.7
564.062,1191.0
564.196,1189.9
564.331,1191.7
564.466,1196.1
564.6,1195.8
564.735,1200.8
564.87,1204.8
565.004,1211.2
565.139,1221.7
565.273,1214.6
565.408,1213.0
565.543,1215.2
565.677,1222.8
565.812,1230.4
565.946,1223.2
566.081,1220.0
566.215,1209.7
566.35,1207.2
566.485,1208.5
566.619,1202.9
566.754,1207.8
566.888,1207.7
567.023,1199.9
567.157,1209.7
567.292,1210.9
567.426,1213.3
567.561,1211.7
567.695,1215.0
567.83,1224.4
567.964,1219.2
568.099,1216.9
568.233,1210.7
568.368,1213.3
568.502,1213.7
568.636,1223.2
568.771,1218.0
568.905,1222.2
569.04,1224.9
569.174,1223.8
569.309,1229.1
569.443,1228.3
569.577,1226.4
569.712,1226.2
569.846,1226.1
569.98,1224.3
570.115,1237.4
570.249,1232.6
570.384,1236.2
570.518,1245.8
570.652,1259.0
570.787,1255.4
570.921,1269.8
571.055,1292.7
571.19,1301.5
571.324,1315.0
571.458,1301.6
571.592,1303.4
571.727,1281.1
571.861,1267.9
571.995,1274.1
572.13,1263.7
572.264,1258.5
572.398,1257.5
572.532,1253.8
572.667,1255.2
572.801,1259.0
572.935,1258.2
573.069,1256.0
573.204,1255.2
573.338,1253.9
573.472,1264.7
573.606,1258.5
573.74,1260.7
573.875,1252.9
574.009,1262.4
574.143,1258.0
574.277,1259.6
574.411,1266.3
574.545,1264.6
574.68,1266.6
574.814,1259.5
574.948,1275.5
575.082,1273.9
575.216,1270.6
575.35,1284.5
575.484,1279.6
575.619,1281.3
575.753,1275.4
575.887,1274.0
576.021,1270.6
576.155,1272.7
576.289,1281.1
576.423,1280.8
576.557,1287.2
576.691,1282.6
576.825,1282.6
576.959,1284.0
577.093,1284.1
577.227,1289.2
577.361,1289.4
577.495,1288.0
577.629,1294.3
577.763,1284.3
577.897,1278.2
578.031,1296.0
578.165,1293.1
578.299,1287.0
578.433,1304.3
578.567,1292.2
578.701,1294.4
578.835,1294.5
578.969,1301.5
579.103,1294.7
579.237,1299.6
579.371,1300.8
579.505,1309.1
579.639,1292.9
579.773,1305.0
579.907,1299.5
580.041,1303.8
580.175,1307.1
580.309,1312.0
580.442,1305.2
580.576,1300.4
580.71,1301.8
580.844,1304.9
580.978,1317.7
581.112,1316.5
581.246,1314.3
581.38,1309.6
581.513,1324.9
581.647,1335.2
581.781,1358.1
581.915,1411.1
582.049,1495.7
582.183,1586.4
582.316,1528.3
582.45,1411.3
582.584,1351.5
582.718,1332.2
582.852,1323.9
582.985,1333.8
583.119,1325.2
583.253,1328.3
583.387,1331.6
583.52,1325.9
583.654,1322.9
583.788,1333.3
583.922,1326.8
584.055,1330.5
584.189,1336.7
584.323,1339.0
584.456,1338.8
584.59,1338.7
584.724,1341.3
584.858,1341.3
584.991,1335.8
585.125,1356.3
585.259,1349.2
585.392,1356.7
585.526,1370.0
585.66,1396.8
585.793,1417.5
585.927,1457.3
586.061,1476.3
586.194,1465.9
586.328,1456.9
586.462,1425.5
586.595,1405.8
586.729,1390.2
586.862,1371.9
586.996,1365.5
587.13,1360.6
587.263,1366.4
587.397,1367.5
587.53,1359.0
587.664,1350.8
587.797,1361.7
587.931,1362.5
588.065,1363.5
588.198,1358.1
588.332,1356.9
588.465,1357.7
588.599,1354.3
588.732,1355.2
588.866,1357.9
588.999,1364.6
589.133,1354.9
589.266,1359.4
589.4,1358.2
589.533,1354.9
589.667,1362.4
589.8,1360.0
589.934,1363.6
590.067,1372.6
590.201,1367.7
590.334,1368.2
590.468,1367.8
590.601,1367.6
590.735,1373.4
590.868,1372.4
591.001,1381.4
591.135,1373.0
591.268,1377.7
591.402,1383.3
591.535,1380.8
591.669,1382.9
591.802,1378.2
591.935,1370.8
592.069,1388.1
592.202,1384.9
592.335,1378.8
592.469,1382.2
592.602,1382.9
592.736,1384.5
592.869,1389.0
593.002,1377.0
593.136,1374.5
593.269,1380.6
593.402,1383.7
593.536,1388.9
593.669,1387.4
593.802,1383.9
593.936,1387.2
594.069,1391.4
594.202,1389.9
594.336,1398.7
594.469,1390.6
594.602,1387.8
594.735,1397.4
594.869,1406.4
595.002,1399.0
595.135,1406.6
595.268,1401.3
595.402,1411.8
595.535,1416.5
595.668,1406.9
595.801,1415.7
595.935,1413.0
596.068,1411.3
596.201,1412.6
596.334,1423.5
596.468,1419.1
596.601,1417.8
596.734,1419.7
596.867,1412.3
597.0,1430.1
597.133,1425.7
597.267,1429.4
597.4,1428.5
597.533,1441.4
597.666,1433.6
597.799,1433.2
597.932,1435.3
598.066,1432.4
598.199,1442.7
598.332,1447.2
598.465,1458.8
598.598,1460.4
598.731,1455.0
598.864,1444.7
598.998,1456.0
599.131,1453.3
599.264,1452.5
599.397,1454.7
599.53,1460.3
599.663,1468.6
599.796,1465.2
599.929,1456.0
600.062,1459.3
600.195,1452.5
600.328,1466.0
600.461,1463.2
600.594,1461.0
600.727,1460.8
600.86,1466.7
600.994,1467.2
601.127,1476.8
601.26,1475.4
601.393,1479.6
601.526,1474.6
601.659,1479.3
601.792,1481.2
601.925,1482.5
602.058,1492.5
602.191,1481.2
602.324,1487.0
602.457,1489.7
602.589,1493.3
602.722,1494.9
602.855,1497.7
602.988,1497.2
603.121,1497.0
603.254,1502.1
603.387,1504.4
603.52,1492.0
603.653,1505.1
603.786,1511.2
603.919,1511.0
604.052,1512.5
604.185,1506.7
604.318,1512.7
604.451,1522.9
604.583,1516.5
604.716,1512.9
604.849,1520.6
604.982,1521.5
605.115,1522.1
605.248,1527.6
605.381,1515.1
605.514,1526.0
605.646,1525.0
605.779,1519.3
605.912,1521.3
606.045,1530.7
606.178,1527.4
606.311,1523.0
606.443,1521.9
606.576,1535.9
606.709,1536.5
606.842,1538.9
606.975,1541.8
607.107,1532.8
607.24,1545.3
607.373,1550.4
607.506,1562.2
607.639,1548.7
607.771,1559.1
607.904,1558.9
608.037,1562.9
608.17,1567.2
608.302,1564.8
608.435,1570.4
608.568,1573.8
608.701,1587.5
608.833,1579.4
608.966,1581.8
609.099,1585.3
609.232,1593.2
609.364,1592.8
609.497,1599.7
609.63,1598.9
609.762,1595.0
609.895,1610.5
610.028,1604.8
610.161,1610.8
610.293,1610.5
610.426,1612.6
610.559,1609.8
610.691,1620.6
610.824,1625.3
610.957,1611.9
611.089,1613.7
611.222,1619.9
611.355,1621.5
611.487,1625.0
611.62,1646.0
611.752,1633.4
611.885,1651.9
612.018,1641.1
612.15,1658.5
612.283,1645.0
612.416,1662.4
612.548,1669.9
612.681,1671.2
612.813,1681.2
612.946,1689.5
613.078,1687.5
613.211,1690.1
613.344,1692.3
613.476,1702.6
613.609,1703.8
613.741,1700.3
613.874,1703.2
614.006,1711.1
614.139,1719.9
614.272,1717.8
614.404,1727.7
614.537,1721.3
614.669,1730.9
614.802,1722.4
614.934,1730.4
615.067,1732.5
615.199,1735.9
615.332,1740.4
615.464,1737.1
615.597,1734.6
615.729,1737.4
615.862,1748.5
615.994,1745.3
616.127,1748.0
616.259,1755.9
616.392,1748.5
616.524,1757.6
616.657,1765.4
616.789,1760.6
616.922,1771.3
617.054,1763.1
617.186,1781.4
617.319,1785.4
617.451,1785.5
617.584,1787.8
617.716,1793.2
617.849,1804.2
617.981,1797.4
618.113,1808.9
618.246,1810.8
618.378,1812.4
618.511,1807.9
618.643,1811.7
618.775,1817.8
618.908,1825.3
619.04,1822.1
619.173,1823.8
619.305,1813.1
619.437,1819.4
619.57,1824.9
619.702,1838.9
619.834,1828.5
619.967,1822.0
620.099,1833.6
620.231,1838.9
620.364,1846.9
620.496,1846.0
620.628,1836.7
620.761,1847.8
620.893,1837.3
621.025,1848.9
621.158,1850.1
621.29,1844.6
621.422,1846.6
621.555,1856.6
621.687,1861.9
621.819,1861.8
621.952,1871.6
622.084,1874.9
622.216,1874.5
622.348,1885.7
622.481,1888.9
622.613,1887.8
622.745,1893.1
622.878,1899.1
623.01,1893.0
623.142,1901.9
623.274,1901.0
623.407,1913.8
623.539,1910.1
623.671,1905.3
623.803,1910.2
623.935,1914.5
624.068,1916.8
624.2,1913.6
624.332,1922.1
624.464,1926.1
624.597,1932.2
624.729,1935.1
624.861,1954.7
624.993,1935.6
625.125,1941.3
625.258,1934.8
625.39,1947.0
625.522,1945.9
625.654,1936.3
625.786,1946.1
625.918,1944.0
626.051,1939.2
626.183,1950.7
626.315,1944.3
626.447,1945.5
626.579,1951.1
626.711,1944.7
626.844,1952.9
626.976,1952.7
627.108,1955.9
627.24,1958.4
627.372,1937.7
627.504,1960.7
627.636,1961.5
627.768,1963.5
627.901,1967.0
628.033,1954.9
628.165,1967.1
628.297,1972.5
628.429,1970.6
628.561,1965.6
628.693,1975.0
628.825,1973.1
628.957,1971.3
629.089,1984.2
629.221,1993.8
629.354,1980.2
629.486,1989.4
629.618,1997.5
629.75,1987.9
629.882,1985.1
630.014,1998.6
630.146,1981.7
630.278,1990.2
630.41,1997.0
630.542,1984.9
630.674,1999.2
630.806,1999.1
630.938,2022.5
631.07,2011.1
631.202,2012.2
631.334,2004.1
631.466,2024.0
631.598,2021.4
631.73,2033.4
631.862,2025.1
631.994,2033.3
632.126,2018.6
632.258,2019.0
632.39,2021.4
632.522,2024.6
632.654,2013.1
632.786,2011.8
632.918,2018.3
633.05,2015.5
633.182,2028.5
633.314,2014.8
633.446,2018.9
633.578,2027.1
633.71,2001.5
633.842,2012.4
633.974,2015.0
634.106,2001.9
634.237,2011.8
634.369,1998.4
634.501,2000.2
634.633,2002.9
634.765,2012.2
634.897,2013.1
635.029,2008.9
635.161,2013.2
635.293,2029.2
635.425,2012.5
635.557,2021.6
635.689,2022.8
635.82,2016.2
635.952,2031.7
636.084,2030.7
636.216,2037.8
636.348,2056.8
636.48,2052.3
636.612,2056.3
636.744,2054.0
636.875,2055.0
637.007,2034.3
637.139,2038.3
637.271,2031.9
637.403,2035.1
637.535,2019.0
637.667,2019.3
637.798,2018.2
637.93,2020.2
638.062,2013.5
638.194,2018.5
638.326,2004.8
638.458,2027.5
638.589,2031.1
638.721,2019.9
638.853,2014.4
638.985,2023.5
639.117,2023.7
639.248,2011.6
639.38,2007.5
639.512,2023.7
639.644,2024.1
639.776,2008.5
639.907,2029.3
640.039,2014.5
640.171,2011.6
640.303,2019.3
640.435,2017.8
640.566,2016.4
640.698,2013.8
640.83,2032.7
640.962,2019.3
641.093,2020.1
641.225,2026.8
641.357,2025.6
641.489,2024.7
641.62,2029.6
641.752,2035.0
641.884,2020.2
642.016,2031.7
642.147,2022.4
642.279,2019.2
642.411,2019.2
642.543,2013.9
642.674,2003.5
642.806,2000.6
642.938,2013.4
643.069,2001.2
643.201,2000.9
643.333,2010.6
643.465,1998.3
643.596,1999.3
643.728,1999.9
643.86,1999.2
643.991,1987.3
644.123,1990.8
644.255,1995.5
644.386,1988.4
644.518,1999.0
644.65,1990.8
644.781,1989.0
644.913,1988.3
645.045,1974.3
645.176,1999.5
645.308,1988.3
645.44,1978.6
645.571,1980.9
645.703,1976.2
645.835,1981.8
645.966,1990.4
646.098,1992.2
646.23,1975.5
646.361,1980.5
646.493,1968.0
646.625,1992.1
646.756,1993.6
646.888,1989.3
647.019,1990.2
647.151,1989.8
647.283,1983.1
647.414,1994.2
647.546,1987.4
647.678,1985.4
647.809,1992.9
647.941,1990.4
648.072,1979.8
648.204,1987.2
648.336,1991.4
648.467,1981.2
648.599,1978.6
648.73,1984.8
648.862,1980.2
648.993,1967.0
649.125,1988.2
649.257,1980.3
649.388,1971.3
649.52,1965.7
649.651,1971.8
649.783,1973.0
649.914,1968.9
650.046,1961.9
650.178,1957.2
650.309,1958.5
650.441,1954.5
650.572,1961.5
650.704,1952.7
650.835,1958.5
650.967,1952.3
651.098,1959.8
651.23,1956.8
651.361,1959.4
651.493,1955.3
651.625,1956.9
651.756,1960.8
651.888,1963.8
652.019,1960.9
652.151,1959.0
652.282,1956.1
652.414,1961.6
652.545,1964.2
652.677,1970.4
652.808,1961.0
652.94,1962.6
653.071,1955.4
653.203,1962.4
653.334,1957.8
653.466,1966.2
653.597,1963.9
653.729,1958.1
653.86,1952.7
653.992,1954.8
654.123,1962.5
654.255,1967.6
654.386,1946.7
654.518,1961.4
654.649,1972.2
654.78,1950.5
654.912,1954.7
655.043,1957.0
655.175,1946.3
655.306,1948.4
655.438,1950.2
655.569,1953.2
655.701,1948.5
655.832,1942.1
655.964,1949.2
656.095,1952.0
656.226,1949.0
656.358,1946.5
656.489,1950.5
656.621,1941.7
656.752,1955.2
656.884,1957.2
657.015,1946.4
657.146,1952.0
657.278,1946.5
657.409,1951.8
657.541,1943.4
657.672,1959.3
657.804,1944.7
657.935,1963.1
658.066,1957.0
658.198,1948.8
658.329,1952.0
658.461,1956.5
658.592,1957.1
658.723,1945.3
658.855,1960.8
658.986,1943.4
659.118,1956.4
659.249,1954.1
659.38,1936.8
659.512,1954.0
659.643,1941.0
659.774,1949.9
659.906,1944.2
660.037,1954.6
660.169,1950.5
660.3,1938.5
660.431,1935.4
660.563,1942.2
660.694,1944.1
660.825,1944.5
660.957,1938.0
661.088,1946.6
661.22,1936.0
661.351,1938.5
661.482,1923.2
661.614,1934.3
661.745,1933.0
661.876,1928.2
662.008,1929.2
662.139,1910.1
662.27,1914.8
662.402,1920.3
662.533,1922.5
662.664,1918.1
662.796,1916.9
662.927,1925.3
663.058,1922.5
