nm,Intensity
791.75,6089.6
792.024,5955.75
792.298,5858.15
792.572,5804.6
792.846,5793.5
793.12,5755.8
793.394,5724.95
793.668,5701.45
793.942,5728.8
794.215,5671.45
794.489,5689.1
794.763,5719.2
795.037,5741.75
795.311,5752.4
795.585,5783.2
795.859,5765.2
796.133,5718.25
796.407,5657.35
796.681,5657.1
796.955,5641.75
797.228,5648.5
797.502,5639.75
797.776,5617.9
798.05,5615.1
798.324,5602.85
798.598,5574.15
798.871,5589.0
799.145,5607.7
799.419,5555.75
799.693,5579.45
799.967,5595.4
800.241,5565.95
800.514,5540.45
800.788,5577.25
801.062,5570.0
801.336,5518.35
801.61,5507.0
801.883,5489.4
802.157,5487.25
802.431,5486.75
802.705,5494.25
802.978,5505.35
803.252,5478.15
803.526,5422.2
803.8,5423.85
804.073,5448.1
804.347,5453.25
804.621,5470.1
804.894,5446.05
805.168,5441.65
805.442,5410.8
805.715,5445.55
805.989,5400.55
806.263,5377.25
806.536,5379.25
806.81,5378.25
807.084,5331.65
807.357,5323.8
807.631,5337.65
807.905,5353.2
808.178,5331.35
808.452,5300.7
808.726,5337.25
808.999,5322.85
809.273,5337.55
809.546,5402.2
809.82,5472.85
810.094,5526.1
810.367,5477.9
810.641,5400.5
810.914,5327.3
811.188,5310.95
811.461,5268.35
811.735,5264.85
812.008,5266.15
812.282,5269.65
812.556,5261.1
812.829,5266.3
813.103,5284.45
813.376,5270.15
813.65,5271.4
813.923,5258.45
814.197,5213.95
814.47,5212.65
814.744,5202.35
815.017,5176.85
815.29,5150.35
815.564,5166.85
815.837,5175.25
816.111,5138.4
816.384,5139.55
816.658,5122.65
816.931,5123.05
817.205,5120.85
817.478,5135.7
817.751,5141.0
818.025,5122.4
818.298,5125.8
818.572,5126.75
818.845,5102.35
819.118,5097.9
819.392,5092.15
819.665,5055.2
819.938,5056.55
820.212,5068.7
820.485,5063.85
820.758,5047.85
821.032,5005.9
821.305,5000.2
821.578,5015.6
821.852,5018.65
822.125,5025.4
822.398,5007.35
822.672,4993.45
822.945,4994.25
823.218,5033.85
823.491,5015.35
823.765,4978.05
824.038,5000.85
824.311,4988.1
824.585,4959.3
824.858,4970.65
825.131,4947.8
825.404,4937.9
825.677,4940.8
825.951,4951.3
826.224,4959.65
826.497,4947.35
826.77,4928.8
827.043,4888.05
827.317,4902.8
827.59,4926.0
827.863,4920.35
828.136,4920.55
828.409,4909.1
828.682,4924.35
828.956,4915.05
829.229,4883.2
829.502,4875.15
829.775,4893.65
830.048,4888.25
830.321,4850.35
830.594,4851.2
830.867,4855.65
831.14,4844.8
831.413,4841.45
831.687,4834.85
831.96,4840.25
832.233,4853.5
832.506,4844.95
832.779,4862.35
833.052,4859.05
833.325,4850.95
833.598,4838.45
833.871,4824.25
834.144,4818.0
834.417,4821.05
834.69,4815.05
834.963,4818.15
835.236,4823.6
835.509,4825.4
835.782,4818.1
836.055,4827.15
836.328,4805.85
836.601,4815.5
836.874,4866.1
837.147,4929.65
837.419,5014.15
837.692,5031.65
837.965,5027.5
838.238,4984.75
838.511,4925.1
838.784,4884.65
839.057,4859.1
839.33,4900.3
839.603,4938.25
839.876,4981.0
840.148,4975.2
840.421,4912.85
840.694,4845.25
840.967,4805.35
841.24,4778.55
841.513,4766.7
841.785,4762.95
842.058,4731.6
842.331,4746.5
842.604,4749.35
842.877,4758.05
843.149,4722.55
843.422,4707.3
843.695,4713.4
843.968,4750.9
844.24,4755.5
844.513,4729.0
844.786,4723.5
845.059,4709.3
845.331,4688.55
845.604,4693.25
845.877,4691.7
846.15,4685.6
846.422,4710.55
846.695,4730.35
846.968,4720.4
847.24,4718.7
847.513,4698.7
847.786,4691.8
848.058,4719.85
848.331,4705.35
848.604,4701.85
848.876,4732.9
849.149,4748.05
849.421,4730.4
849.694,4749.0
849.967,4728.45
850.239,4707.6
850.512,4686.6
850.784,4704.5
851.057,4734.7
851.33,4771.15
851.602,4738.7
851.875,4725.45
852.147,4687.75
852.42,4666.4
852.692,4663.75
852.965,4662.55
853.237,4675.3
853.51,4692.1
853.782,4687.2
854.055,4688.0
854.327,4683.1
854.6,4673.6
854.872,4670.8
855.145,4662.85
855.417,4644.4
855.69,4634.4
855.962,4604.85
856.235,4615.5
856.507,4620.5
856.779,4589.9
857.052,4594.2
857.324,4593.9
857.597,4605.3
857.869,4606.9
858.142,4617.15
858.414,4617.95
858.686,4620.15
858.959,4622.2
859.231,4622.1
859.503,4590.6
859.776,4598.35
860.048,4607.75
860.32,4581.65
860.593,4592.8
860.865,4592.3
861.137,4592.7
861.41,4633.25
861.682,4651.15
861.954,4680.95
862.226,4712.9
862.499,4732.75
862.771,4705.55
863.043,4713.15
863.315,4696.05
863.588,4668.45
863.86,4645.75
864.132,4621.9
864.404,4581.55
864.677,4559.05
864.949,4565.3
865.221,4585.4
865.493,4590.5
865.765,4581.05
866.038,4563.05
866.31,4569.45
866.582,4571.4
866.854,4592.4
867.126,4607.75
867.398,4609.9
867.67,4606.85
867.943,4586.15
868.215,4561.2
868.487,4532.55
868.759,4514.1
869.031,4509.35
869.303,4524.05
869.575,4546.1
869.847,4536.1
870.119,4528.9
870.391,4532.4
870.663,4541.0
870.935,4515.9
871.207,4513.0
871.479,4509.8
871.751,4522.65
872.023,4524.3
872.295,4529.75
872.567,4522.4
872.839,4528.8
873.111,4543.55
873.383,4552.1
873.655,4546.8
873.927,4545.25
874.199,4558.45
874.471,4550.1
874.743,4549.95
875.015,4568.7
875.287,4614.75
875.559,4638.15
875.831,4647.8
876.103,4640.8
876.374,4586.95
876.646,4584.65
876.918,4568.85
877.19,4545.6
877.462,4517.8
877.734,4520.65
878.006,4535.45
878.277,4521.85
878.549,4515.1
878.821,4495.05
879.093,4473.8
879.365,4476.3
879.636,4459.7
879.908,4432.75
880.18,4446.7
880.452,4431.35
880.723,4430.85
880.995,4413.95
881.267,4432.7
881.539,4407.4
881.81,4412.8
882.082,4418.75
882.354,4406.0
882.626,4400.6
882.897,4394.2
883.169,4429.7
883.441,4453.4
883.712,4456.95
883.984,4470.55
884.256,4496.65
884.527,4516.55
884.799,4535.5
885.07,4549.05
885.342,4592.65
885.614,4592.25
885.885,4571.45
886.157,4528.45
886.428,4525.75
886.7,4512.35
886.972,4461.9
887.243,4403.6
887.515,4376.75
887.786,4354.5
888.058,4352.8
888.329,4353.5
888.601,4345.5
888.872,4343.85
889.144,4322.6
889.415,4332.35
889.687,4327.1
889.958,4317.05
890.23,4325.15
890.501,4342.1
890.773,4348.35
891.044,4331.2
891.316,4326.35
891.587,4322.7
891.859,4340.1
892.13,4322.15
892.401,4299.9
892.673,4288.55
892.944,4294.9
893.216,4297.25
893.487,4295.75
893.758,4288.2
894.03,4272.75
894.301,4269.7
894.572,4265.5
894.844,4265.55
895.115,4251.9
895.386,4247.45
895.658,4245.25
895.929,4255.7
896.2,4256.4
896.472,4265.7
896.743,4244.55
897.014,4231.3
897.285,4232.1
897.557,4232.8
897.828,4239.45
898.099,4220.7
898.37,4224.0
898.642,4237.7
898.913,4230.15
899.184,4221.25
899.455,4217.15
899.726,4210.05
899.998,4205.45
900.269,4198.1
900.54,4194.25
900.811,4192.1
901.082,4184.35
901.353,4183.4
901.625,4179.4
901.896,4189.85
902.167,4186.05
902.438,4183.9
902.709,4168.55
902.98,4168.7
903.251,4167.3
903.522,4172.2
903.793,4157.9
904.064,4167.3
904.335,4167.2
904.606,4164.85
904.877,4140.0
905.148,4132.3
905.419,4126.7
905.69,4129.85
905.961,4141.8
906.232,4139.6
906.503,4138.95
906.774,4132.05
907.045,4126.0
907.316,4131.65
907.587,4123.7
907.858,4126.1
908.129,4120.05
908.4,4101.45
908.671,4092.85
908.942,4102.0
909.213,4103.65
909.484,4101.55
909.755,4101.25
910.025,4099.55
910.296,4110.55
910.567,4096.75
910.838,4091.75
911.109,4078.7
911.38,4077.5
911.65,4070.6
911.921,4077.5
912.192,4079.95
912.463,4080.7
912.734,4084.4
913.004,4065.35
913.275,4053.8
913.546,4063.9
913.817,4066.2
914.087,4056.7
914.358,4053.65
914.629,4052.5
914.9,4047.8
915.17,4040.25
915.441,4041.1
915.712,4044.35
915.982,4053.2
916.253,4042.95
916.524,4044.05
916.794,4030.3
917.065,4038.75
917.336,4039.0
917.606,4035.0
917.877,4022.6
918.147,4028.55
918.418,4028.1
918.689,4031.8
918.959,4011.75
919.23,4004.4
919.5,4009.35
919.771,4012.55
920.042,4009.75
920.312,4002.1
920.583,4009.8
920.853,4009.0
921.124,4008.15
921.394,4001.45
921.665,3996.2
921.935,3993.8
922.206,3988.25
922.476,3988.1
922.747,3982.75
923.017,3986.7
923.287,3981.9
923.558,3978.9
923.828,3984.25
924.099,3981.95
924.369,3973.95
924.639,3976.45
924.91,3971.3
925.18,3965.65
925.451,3970.05
925.721,3958.25
925.991,3962.75
926.262,3963.9
926.532,3964.5
926.802,3962.2
927.073,3953.4
927.343,3952.85
927.613,3952.55
927.884,3954.15
928.154,3948.9
928.424,3940.9
928.694,3935.45
928.965,3938.0
929.235,3939.2
929.505,3937.9
929.775,3934.75
930.046,3935.8
930.316,3935.6
930.586,3933.55
930.856,3927.85
931.126,3922.35
931.397,3922.7
931.667,3918.75
931.937,3921.85
932.207,3917.65
932.477,3921.3
932.747,3922.25
933.017,3919.5
933.288,3918.75
933.558,3917.0
933.828,3907.5
934.098,3901.65
934.368,3904.15
934.638,3908.6
934.908,3901.15
935.178,3903.85
935.448,3902.0
935.718,3902.7
935.988,3895.45
936.258,3892.3
936.528,3890.85
936.798,3891.5
937.068,3898.15
937.338,3887.25
937.608,3887.7
937.878,3889.05
938.148,3890.3
938.418,3879.25
938.688,3887.8
938.958,3885.25
939.228,3880.65
939.498,3877.15
939.767,3876.0
940.037,3877.3
940.307,3872.8
940.577,3872.95
940.847,3872.9
941.117,3871.9
941.387,3860.05
941.656,3858.8
941.926,3863.25
942.196,3864.65
942.466,3869.1
942.736,3865.5
943.005,3859.8
943.275,3860.2
943.545,3863.85
943.815,3856.2
944.084,3853.35
944.354,3855.05
944.624,3854.4
944.894,3852.95
945.163,3855.05
945.433,3852.75
945.703,3851.7
945.972,3846.1
946.242,3847.2
946.512,3845.9
946.781,3848.6
947.051,3842.35
947.321,3842.25
947.59,3845.55
947.86,3844.4
948.13,3842.7
948.399,3838.9
948.669,3841.3
948.938,3838.0
949.208,3837.95
949.477,3837.95
949.747,3839.25
950.016,3838.45
950.286,3832.05
950.556,3832.35
950.825,3829.85
951.095,3828.4
951.364,3826.85
951.634,3827.75
951.903,3827.7
952.172,3825.0
952.442,3825.7
952.711,3822.75
952.981,3827.55
953.25,3823.45
953.52,3821.05
953.789,3821.05
954.058,3821.35
954.328,3818.7
954.597,3818.9
954.867,3819.7
955.136,3814.35
955.405,3811.95
955.675,3810.85
955.944,3814.1
956.213,3811.55
956.483,3817.05
956.752,3816.35
957.021,3810.7
957.29,3811.45
957.56,3810.8
957.829,3811.5
958.098,3810.4
958.367,3806.5
958.637,3804.5
958.906,3804.35
959.175,3804.85
959.444,3806.3
959.714,3804.8
959.983,3802.7
960.252,3801.2
960.521,3803.2
960.79,3798.9
961.059,3796.1
961.328,3797.6
961.598,3797.15
961.867,3800.75
962.136,3796.6
962.405,3794.05
962.674,3797.3
962.943,3796.45
963.212,3795.65
963.481,3794.95
963.75,3791.45
964.019,3792.65
964.288,3792.3
964.557,3789.65
964.826,3789.05
965.095,3792.6
965.364,3789.85
965.633,3786.55
965.902,3786.1
966.171,3788.75
966.44,3787.5
966.709,3787.3
966.978,3787.7
967.247,3783.9
967.516,3783.0
967.785,3782.35
968.054,3779.3
968.323,3779.35
968.591,3781.7
968.86,3782.8
969.129,3778.85
969.398,3779.85
969.667,3777.6
969.936,3777.5
970.204,3775.45
970.473,3778.0
970.742,3777.95
971.011,3775.1
971.28,3774.6
971.548,3771.7
971.817,3777.35
972.086,3773.0
972.355,3773.75
972.623,3770.6
972.892,3771.6
973.161,3772.15
973.429,3773.55
973.698,3774.25
973.967,3770.75
974.235,3770.1
974.504,3770.3
974.773,3768.5
975.041,3768.35
975.31,3770.35
975.579,3767.25
975.847,3764.8
976.116,3761.8
976.384,3763.6
976.653,3764.35
976.922,3762.4
977.19,3763.05
977.459,3766.05
977.727,3762.3
977.996,3763.55
978.264,3759.9
978.533,3762.05
978.801,3760.95
979.07,3760.45
979.338,3761.35
979.607,3761.15
979.875,3761.05
980.143,3759.0
980.412,3757.65
980.68,3758.95
980.949,3756.6
981.217,3757.35
981.486,3758.95
981.754,3758.85
982.022,3759.05
982.291,3756.45
982.559,3755.7
982.827,3756.55
983.096,3756.2
983.364,3755.05
983.632,3755.2
983.901,3751.65
984.169,3754.1
984.437,3753.8
984.705,3755.95
984.974,3755.25
985.242,3755.3
985.51,3752.05
985.778,3753.95
986.047,3752.15
986.315,3752.6
986.583,3749.3
986.851,3749.8
987.119,3749.8
987.388,3749.1
987.656,3748.75
987.924,3747.3
988.192,3746.2
988.46,3747.55
988.728,3749.85
988.996,3748.45
989.264,3747.7
989.533,3747.25
989.801,3746.85
990.069,3749.15
990.337,3746.3
990.605,3747.0
990.873,3745.25
991.141,3748.55
991.409,3745.5
991.677,3744.6
991.945,3744.4
992.213,3745.65
992.481,3743.95
992.749,3743.35
993.017,3743.55
993.285,3743.85
993.553,3743.45
993.82,3741.7
994.088,3743.45
994.356,3743.5
994.624,3739.95
994.892,3743.95
995.16,3740.65
995.428,3740.65
995.696,3741.7
995.963,3742.9
996.231,3746.2
996.499,3743.9
996.767,3744.05
997.035,3743.65
997.302,3747.55
997.57,3745.5
997.838,3746.05
998.106,3742.75
998.373,3743.6
998.641,3744.05
998.909,3743.45
999.177,3740.3
999.444,3738.5
999.712,3737.3
999.98,3736.45
1000.25,3735.65
1000.51,3735.7
1000.78,3734.55
1001.05,3735.0
1001.32,3734.85
1001.59,3734.2
1001.85,3731.05
1002.12,3732.45
1002.39,3734.45
1002.66,3733.3
1002.92,3731.45
1003.19,3730.85
1003.46,3730.6
1003.73,3730.25
1003.99,3729.55
1004.26,3728.75
1004.53,3728.8
1004.8,3731.35
1005.06,3730.8
1005.33,3727.65
1005.6,3731.1
1005.87,3730.55
1006.13,3726.65
1006.4,3730.8
1006.67,3730.3
1006.94,3729.65
1007.2,3731.1
1007.47,3732.45
1007.74,3736.1
1008.0,3737.9
1008.27,3743.35
1008.54,3746.05
1008.81,3746.7
1009.07,3752.05
1009.34,3751.7
1009.61,3753.15
1009.88,3753.5
1010.14,3757.8
1010.41,3760.1
1010.68,3762.15
1010.95,3762.2
1011.21,3764.65
1011.48,3769.15
1011.75,3770.8
1012.01,3771.0
1012.28,3777.25
1012.55,3780.05
1012.82,3780.25
1013.08,3784.85
1013.35,3789.4
1013.62,3792.0
1013.88,3789.85
1014.15,3789.05
1014.42,3793.55
1014.69,3791.1
1014.95,3787.4
1015.22,3785.2
1015.49,3781.35
1015.75,3782.15
1016.02,3781.25
1016.29,3778.8
1016.55,3772.8
1016.82,3771.35
1017.09,3768.9
1017.36,3763.4
1017.62,3761.05
1017.89,3762.5
1018.16,3757.15
1018.42,3756.05
1018.69,3753.9
1018.96,3752.55
1019.22,3749.65
1019.49,3747.95
1019.76,3746.8
1020.02,3742.65
1020.29,3742.05
1020.56,3742.45
1020.83,3740.3
1021.09,3739.0
1021.36,3738.9
1021.63,3739.25
1021.89,3738.3
1022.16,3741.15
1022.43,3736.85
1022.69,3735.35
1022.96,3731.5
1023.23,3730.25
1023.49,3727.6
1023.76,3725.2
1024.03,3721.95
1024.29,3720.6
1024.56,3719.9
1024.83,3718.9
1025.09,3717.4
1025.36,3716.65
1025.63,3716.0
1025.89,3715.55
1026.16,3714.15
1026.43,3714.25
1026.69,3714.7
1026.96,3714.3
1027.23,3713.8
1027.49,3713.1
1027.76,3712.95
1028.03,3711.8
1028.29,3710.45
1028.56,3710.25
1028.83,3711.3
1029.09,3710.95
1029.36,3711.85
1029.62,3709.85
1029.89,3710.5
1030.16,3711.9
1030.42,3710.5
1030.69,3711.75
1030.96,3710.85
1031.22,3710.45
1031.49,3709.4
1031.76,3711.05
1032.02,3709.85
1032.29,3710.2
1032.56,3708.0
1032.82,3710.7
1033.09,3709.7
1033.35,3709.45
1033.62,3709.65
1033.89,3709.95
1034.15,3711.35
1034.42,3709.05
1034.69,3710.85
1034.95,3710.3
1035.22,3709.6
1035.48,3709.6
1035.75,3708.65
1036.02,3709.0
1036.28,3707.25
1036.55,3707.35
1036.81,3708.4
1037.08,3708.15
1037.35,3707.75
1037.61,3707.05
1037.88,3707.15
1038.15,3708.5
1038.41,3707.65
1038.68,3707.05
1038.94,3708.15
1039.21,3709.25
1039.48,3707.9
1039.74,3706.6
1040.01,3708.3
1040.27,3707.1
1040.54,3705.5
1040.81,3707.95
1041.07,3708.05
1041.34,3706.65
1041.6,3707.55
1041.87,3707.25
1042.14,3706.1
1042.4,3706.45
1042.67,3707.6
1042.93,3707.75
1043.2,3705.8
1043.47,3707.2
1043.73,3706.7
1044.0,3706.7
1044.26,3706.85
1044.53,3706.0
1044.79,3704.95
1045.06,3707.25
1045.33,3706.65
1045.59,3705.95
1045.86,3706.25
1046.12,3705.1
1046.39,3705.2
1046.65,3704.65
1046.92,3705.7
1047.19,3705.7
1047.45,3705.05
1047.72,3705.8
1047.98,3705.55
1048.25,3705.5
1048.51,3705.5
1048.78,3705.85
1049.05,3705.25
1049.31,3706.2
1049.58,3705.15
1049.84,3705.6
1050.11,3705.3
1050.37,3705.7
1050.64,3703.1
1050.91,3705.1
1051.17,3705.55
1051.44,3704.75
1051.7,3705.3
1051.97,3704.15
1052.23,3706.4
1052.5,3704.05
1052.76,3704.8
1053.03,3704.35
1053.29,3704.75
1053.56,3704.45
1053.83,3705.1
1054.09,3704.05
1054.36,3703.9
1054.62,3704.6
1054.89,3704.95
1055.15,3705.1
1055.42,3705.75
1055.68,3704.5
1055.95,3703.8
1056.21,3705.4
1056.48,3705.1
1056.74,3704.1
1057.01,3705.05
1057.27,3703.95
1057.54,3703.7
1057.81,3703.75
1058.07,3705.8
1058.34,3705.4
1058.6,3702.0
1058.87,3704.0
1059.13,3705.2
1059.4,3705.05
1059.66,3704.65
1059.93,3704.25
1060.19,3704.4
1060.46,3705.05
1060.72,3704.9
1060.99,3704.15
1061.25,3704.5
1061.52,3703.4
1061.78,3703.2
1062.05,3705.25
1062.31,3703.35
1062.58,3705.05
1062.84,3703.75
1063.11,3703.3
1063.37,3704.0
1063.64,3703.25
1063.9,3702.95
1064.17,3703.1
1064.43,3703.75
1064.7,3704.2
1064.96,3704.1
1065.23,3703.1
1065.49,3702.85
1065.76,3702.95
1066.02,3703.25
1066.29,3704.0
1066.55,3704.05
1066.82,3702.95
1067.08,3703.6
1067.35,3702.25
1067.61,3701.3
1067.88,3703.35
