nm,Intensity
791.377,6237.64
791.652,6234.74
791.927,6254.62
792.202,6141.76
792.477,6085.88
792.752,6057.68
793.027,6003.4
793.301,6001.3
793.576,5974.98
793.851,5945.38
794.126,5959.54
794.401,5996.94
794.676,5962.48
794.951,5941.16
795.225,5937.56
795.5,5930.44
795.775,5961.7
796.05,5941.1
796.325,5942.9
796.599,5937.18
796.874,5890.64
797.149,5902.26
797.424,5828.98
797.698,5829.5
797.973,5855.4
798.248,5836.16
798.523,5844.58
798.797,5811.76
799.072,5799.24
799.347,5797.28
799.622,5813.42
799.896,5790.12
800.171,5817.84
800.446,5824.7
800.72,5787.72
800.995,5772.16
801.27,5741.14
801.544,5735.14
801.819,5714.02
802.094,5730.78
802.368,5756.46
802.643,5740.7
802.918,5690.68
803.192,5696.04
803.467,5674.56
803.742,5651.5
804.016,5685.0
804.291,5662.8
804.565,5649.84
804.84,5660.26
805.114,5687.18
805.389,5657.62
805.664,5660.58
805.938,5635.9
806.213,5616.68
806.487,5586.46
806.762,5593.94
807.036,5625.14
807.311,5623.16
807.585,5574.82
807.86,5586.4
808.134,5572.24
808.409,5557.22
808.683,5561.44
808.958,5605.58
809.232,5530.96
809.507,5548.52
809.781,5577.54
810.056,5638.64
810.33,5632.4
810.605,5600.22
810.879,5578.56
811.153,5568.38
811.428,5516.42
811.702,5497.3
811.977,5492.82
812.251,5535.42
812.525,5513.0
812.8,5490.16
813.074,5497.64
813.349,5492.5
813.623,5458.4
813.897,5471.38
814.172,5508.78
814.446,5487.06
814.72,5445.42
814.995,5408.48
815.269,5374.0
815.543,5373.58
815.818,5370.42
816.092,5388.54
816.366,5384.26
816.64,5368.7
816.915,5335.78
817.189,5347.96
817.463,5332.8
817.737,5318.44
818.012,5334.64
818.286,5334.6
818.56,5355.0
818.834,5316.6
819.109,5308.32
819.383,5283.32
819.657,5311.18
819.931,5310.16
820.205,5266.88
820.48,5291.94
820.754,5267.2
821.028,5255.02
821.302,5251.82
821.576,5270.72
821.85,5244.42
822.125,5227.2
822.399,5206.2
822.673,5214.92
822.947,5223.24
823.221,5202.36
823.495,5224.28
823.769,5224.46
824.043,5176.14
824.317,5182.82
824.591,5198.66
824.865,5213.6
825.14,5198.26
825.414,5166.9
825.688,5157.94
825.962,5168.54
826.236,5139.28
826.51,5144.94
826.784,5155.94
827.058,5137.1
827.332,5111.32
827.606,5116.3
827.88,5127.6
828.154,5124.62
828.428,5102.76
828.702,5098.5
828.976,5112.8
829.249,5118.94
829.523,5112.12
829.797,5102.66
830.071,5077.34
830.345,5061.56
830.619,5080.98
830.893,5083.9
831.167,5095.68
831.441,5068.4
831.715,5034.82
831.988,5036.02
832.262,5076.1
832.536,5075.08
832.81,5054.62
833.084,5049.66
833.358,5039.04
833.632,5045.9
833.905,5057.72
834.179,5050.12
834.453,5029.5
834.727,5024.9
835.001,5013.06
835.274,5014.0
835.548,5017.18
835.822,5017.62
836.096,4999.26
836.369,5012.46
836.643,5015.38
836.917,5021.5
837.191,5055.78
837.464,5071.12
837.738,5082.76
838.012,5135.66
838.285,5123.98
838.559,5085.62
838.833,5057.62
839.106,5027.38
839.38,5020.08
839.654,5026.16
839.927,5074.28
840.201,5082.46
840.475,5087.64
840.748,5053.62
841.022,5020.6
841.295,4990.06
841.569,4996.06
841.843,4994.28
842.116,4997.58
842.39,4974.48
842.663,4938.18
842.937,4919.44
843.211,4953.18
843.484,4934.94
843.758,4932.64
844.031,4923.02
844.305,4948.46
844.578,4947.2
844.852,4934.94
845.125,4921.58
845.399,4929.9
845.672,4919.52
845.946,4905.86
846.219,4897.66
846.493,4901.68
846.766,4883.08
847.039,4913.04
847.313,4932.02
847.586,4911.72
847.86,4926.84
848.133,4928.82
848.407,4920.7
848.68,4904.88
848.953,4905.76
849.227,4896.18
849.5,4897.0
849.773,4908.1
850.047,4895.6
850.32,4896.96
850.593,4892.96
850.867,4905.08
851.14,4916.28
851.413,4928.4
851.687,4926.02
851.96,4899.86
852.233,4875.84
852.507,4867.3
852.78,4865.58
853.053,4853.94
853.326,4854.56
853.6,4853.28
853.873,4869.4
854.146,4855.22
854.419,4844.58
854.693,4845.18
854.966,4848.24
855.239,4847.08
855.512,4841.84
855.785,4840.12
856.059,4827.24
856.332,4810.82
856.605,4807.24
856.878,4841.06
857.151,4823.9
857.424,4828.62
857.698,4803.9
857.971,4802.72
858.244,4793.8
858.517,4827.9
858.79,4831.2
859.063,4827.54
859.336,4818.84
859.609,4811.38
859.882,4780.42
860.155,4771.26
860.428,4777.5
860.701,4791.04
860.974,4766.94
861.247,4773.02
861.52,4773.64
861.793,4791.7
862.066,4805.3
862.339,4823.88
862.612,4834.66
862.885,4839.16
863.158,4838.5
863.431,4832.8
863.704,4833.08
863.977,4829.94
864.25,4806.88
864.523,4780.78
864.796,4774.0
865.069,4785.1
865.342,4761.8
865.615,4755.2
865.888,4743.32
866.16,4737.4
866.433,4739.56
866.706,4743.28
866.979,4731.82
867.252,4740.76
867.525,4733.5
867.798,4722.54
868.07,4750.1
868.343,4757.44
868.616,4731.62
868.889,4718.12
869.162,4709.2
869.434,4711.22
869.707,4708.86
869.98,4719.36
870.253,4707.42
870.525,4713.36
870.798,4706.28
871.071,4690.12
871.344,4691.16
871.616,4688.72
871.889,4699.5
872.162,4696.68
872.434,4677.24
872.707,4682.56
872.98,4692.28
873.252,4696.48
873.525,4687.28
873.798,4712.84
874.07,4712.26
874.343,4691.52
874.615,4696.16
874.888,4704.32
875.161,4688.26
875.433,4696.9
875.706,4704.42
875.978,4727.12
876.251,4723.64
876.524,4708.14
876.796,4699.08
877.069,4709.62
877.341,4692.66
877.614,4676.44
877.886,4669.98
878.159,4647.64
878.431,4652.6
878.704,4651.42
878.976,4623.42
879.249,4632.5
879.521,4618.34
879.794,4612.44
880.066,4607.3
880.338,4621.74
880.611,4613.42
880.883,4597.2
881.156,4590.2
881.428,4588.58
881.7,4581.04
881.973,4573.34
882.245,4579.36
882.518,4581.16
882.79,4587.88
883.062,4575.38
883.335,4577.28
883.607,4577.5
883.879,4574.48
884.152,4593.8
884.424,4599.8
884.696,4590.42
884.968,4601.28
885.241,4622.68
885.513,4630.4
885.785,4640.78
886.058,4653.46
886.33,4633.46
886.602,4622.28
886.874,4592.38
887.146,4578.14
887.419,4565.92
887.691,4562.72
887.963,4542.92
888.235,4521.64
888.507,4519.32
888.78,4508.3
889.052,4502.22
889.324,4486.62
889.596,4486.56
889.868,4485.48
890.14,4478.18
890.412,4481.96
890.684,4471.1
890.957,4468.38
891.229,4478.36
891.501,4491.82
891.773,4513.3
892.045,4498.14
892.317,4480.46
892.589,4470.16
892.861,4457.74
893.133,4460.62
893.405,4459.12
893.677,4446.9
893.949,4452.96
894.221,4447.36
894.493,4425.38
894.765,4425.08
895.037,4415.4
895.309,4416.9
895.581,4411.28
895.853,4417.3
896.125,4424.42
896.397,4411.56
896.668,4402.78
896.94,4394.74
897.212,4421.12
897.484,4419.7
897.756,4397.62
898.028,4376.46
898.3,4370.14
898.571,4384.18
898.843,4396.14
899.115,4388.0
899.387,4378.82
899.659,4379.64
899.931,4364.24
900.202,4357.98
900.474,4349.1
900.746,4346.14
901.018,4350.9
901.289,4351.86
901.561,4352.02
901.833,4340.52
902.105,4345.96
902.376,4337.04
902.648,4338.0
902.92,4341.76
903.191,4334.42
903.463,4328.42
903.735,4339.58
904.006,4330.46
904.278,4321.12
904.55,4326.04
904.821,4323.7
905.093,4324.44
905.365,4300.24
905.636,4294.68
905.908,4302.56
906.179,4306.5
906.451,4299.14
906.722,4297.0
906.994,4280.72
907.266,4289.44
907.537,4279.66
907.809,4270.8
908.08,4282.4
908.352,4284.18
908.623,4269.56
908.895,4264.58
909.166,4259.92
909.438,4263.7
909.709,4256.68
909.981,4252.42
910.252,4272.98
910.523,4271.78
910.795,4257.78
911.066,4250.46
911.338,4248.9
911.609,4243.62
911.881,4241.76
912.152,4236.22
912.423,4238.96
912.695,4250.08
912.966,4240.9
913.237,4219.2
913.509,4226.3
913.78,4225.58
914.051,4216.5
914.323,4210.32
914.594,4214.94
914.865,4212.98
915.136,4215.14
915.408,4211.58
915.679,4202.54
915.95,4195.56
916.221,4190.92
916.493,4193.36
916.764,4187.14
917.035,4202.14
917.306,4203.76
917.578,4200.54
917.849,4195.78
918.12,4189.98
918.391,4188.66
918.662,4183.78
918.933,4170.68
919.204,4179.26
919.476,4174.9
919.747,4174.22
920.018,4170.46
920.289,4161.12
920.56,4166.3
920.831,4164.54
921.102,4152.18
921.373,4156.3
921.644,4148.92
921.915,4149.7
922.186,4143.42
922.457,4145.08
922.728,4150.72
922.999,4147.14
923.27,4150.84
923.541,4145.96
923.812,4135.46
924.083,4132.48
924.354,4133.08
924.625,4130.86
924.896,4126.4
925.167,4123.06
925.438,4125.5
925.709,4120.96
925.98,4115.94
926.251,4121.08
926.522,4117.12
926.792,4115.16
927.063,4112.92
927.334,4106.58
927.605,4105.84
927.876,4098.36
928.147,4102.94
928.417,4098.02
928.688,4096.04
928.959,4091.02
929.23,4086.1
929.501,4085.02
929.771,4082.8
930.042,4077.72
930.313,4073.44
930.584,4068.86
930.854,4061.48
931.125,4064.24
931.396,4067.8
931.666,4065.36
931.937,4061.82
932.208,4057.7
932.478,4061.96
932.749,4056.18
933.02,4046.58
933.29,4038.4
933.561,4037.06
933.832,4044.32
934.102,4044.2
934.373,4044.98
934.643,4040.62
934.914,4036.36
935.184,4039.46
935.455,4032.16
935.726,4038.34
935.996,4038.58
936.267,4030.36
936.537,4022.72
936.808,4022.3
937.078,4016.2
937.349,4016.7
937.619,4015.32
937.89,4015.98
938.16,4018.18
938.43,4014.78
938.701,4017.08
938.971,4010.82
939.242,4009.5
939.512,4013.12
939.782,4008.66
940.053,4004.4
940.323,4010.06
940.594,4011.04
940.864,4007.58
941.134,4001.86
941.405,3998.16
941.675,3993.84
941.945,3996.32
942.216,3999.86
942.486,3997.44
942.756,3990.0
943.026,3984.24
943.297,3986.32
943.567,3982.16
943.837,3983.52
944.107,3985.78
944.378,3981.52
944.648,3980.2
944.918,3980.2
945.188,3973.82
945.458,3969.36
945.729,3974.44
945.999,3974.28
946.269,3975.14
946.539,3972.38
946.809,3969.7
947.079,3970.54
947.349,3964.2
947.62,3963.66
947.89,3962.04
948.16,3964.5
948.43,3960.26
948.7,3962.04
948.97,3956.44
949.24,3955.64
949.51,3956.06
949.78,3957.02
950.05,3955.2
950.32,3956.9
950.59,3955.9
950.86,3952.8
951.13,3950.38
951.4,3947.16
951.67,3941.92
951.94,3938.88
952.21,3944.74
952.48,3942.62
952.75,3944.6
953.02,3939.8
953.289,3940.22
953.559,3935.5
953.829,3930.8
954.099,3932.8
954.369,3931.54
954.639,3937.16
954.909,3933.7
955.178,3931.72
955.448,3929.94
955.718,3932.56
955.988,3928.24
956.257,3924.8
956.527,3925.54
956.797,3924.82
957.067,3923.3
957.336,3922.84
957.606,3922.98
957.876,3925.86
958.146,3922.68
958.415,3919.28
958.685,3920.66
958.955,3919.52
959.224,3914.56
959.494,3915.4
959.764,3913.44
960.033,3912.3
960.303,3911.74
960.572,3910.02
960.842,3912.18
961.112,3913.06
961.381,3911.9
961.651,3908.06
961.92,3904.94
962.19,3904.32
962.459,3902.3
962.729,3903.4
962.998,3903.88
963.268,3903.72
963.537,3905.54
963.807,3903.96
964.076,3903.32
964.346,3900.5
964.615,3900.46
964.885,3901.02
965.154,3896.96
965.424,3895.24
965.693,3892.76
965.962,3892.5
966.232,3891.26
966.501,3894.32
966.771,3893.68
967.04,3891.88
967.309,3891.96
967.579,3893.6
967.848,3889.74
968.117,3887.98
968.387,3890.58
968.656,3887.32
968.925,3886.7
969.194,3886.82
969.464,3885.82
969.733,3883.3
970.002,3882.88
970.271,3882.72
970.541,3884.1
970.81,3883.78
971.079,3879.62
971.348,3879.96
971.617,3880.18
971.887,3881.9
972.156,3878.74
972.425,3875.48
972.694,3877.76
972.963,3877.66
973.232,3874.72
973.501,3875.22
973.77,3873.28
974.04,3871.74
974.309,3869.7
974.578,3866.54
974.847,3868.32
975.116,3870.86
975.385,3868.76
975.654,3867.88
975.923,3865.26
976.192,3864.56
976.461,3867.94
976.73,3867.7
976.999,3866.9
977.268,3866.4
977.537,3863.34
977.806,3862.64
978.074,3861.08
978.343,3863.24
978.612,3859.62
978.881,3857.88
979.15,3860.24
979.419,3860.82
979.688,3856.68
979.957,3855.66
980.225,3854.32
980.494,3854.98
980.763,3856.78
981.032,3856.54
981.301,3855.72
981.569,3857.94
981.838,3857.68
982.107,3856.3
982.376,3851.92
982.644,3852.78
982.913,3853.32
983.182,3852.96
983.451,3851.56
983.719,3849.2
983.988,3850.02
984.257,3849.2
984.525,3849.74
984.794,3849.96
985.063,3848.42
985.331,3845.64
985.6,3845.62
985.868,3847.72
986.137,3844.84
986.406,3845.16
986.674,3841.9
986.943,3844.52
987.211,3844.14
987.48,3846.04
987.748,3844.52
988.017,3843.28
988.285,3840.76
988.554,3842.78
988.822,3840.54
989.091,3842.62
989.359,3839.64
989.628,3839.26
989.896,3837.52
990.164,3837.88
990.433,3840.28
990.701,3841.9
990.97,3838.4
991.238,3839.04
991.506,3837.06
991.775,3837.74
992.043,3836.58
992.311,3834.94
992.58,3834.78
992.848,3836.08
993.116,3835.0
993.385,3833.48
993.653,3832.68
993.921,3833.18
994.19,3832.9
994.458,3831.58
994.726,3830.54
994.994,3829.74
995.262,3830.72
995.531,3830.96
995.799,3830.74
996.067,3831.62
996.335,3831.74
996.603,3830.84
996.872,3827.62
997.14,3830.32
997.408,3828.74
997.676,3829.84
997.944,3829.42
998.212,3828.12
998.48,3828.68
998.748,3827.96
999.016,3827.2
999.284,3826.26
999.552,3824.34
999.82,3826.92
1000.09,3824.1
1000.36,3823.76
1000.62,3822.42
1000.89,3822.36
1001.16,3823.2
1001.43,3823.02
1001.7,3822.08
1001.96,3823.74
1002.23,3821.0
1002.5,3820.4
1002.77,3818.22
1003.04,3819.22
1003.3,3817.06
1003.57,3818.3
1003.84,3816.84
1004.11,3817.1
1004.38,3816.0
1004.64,3815.16
1004.91,3815.1
1005.18,3816.24
1005.45,3815.02
1005.71,3814.52
1005.98,3815.06
1006.25,3815.18
1006.52,3814.82
1006.79,3813.58
1007.05,3814.24
1007.32,3813.5
1007.59,3814.26
1007.86,3814.28
1008.12,3814.7
1008.39,3814.52
1008.66,3818.18
1008.93,3818.18
1009.19,3817.1
1009.46,3818.88
1009.73,3821.94
1010.0,3820.86
1010.26,3821.02
1010.53,3822.14
1010.8,3821.4
1011.07,3825.18
1011.33,3824.36
1011.6,3824.48
1011.87,3824.56
1012.14,3824.08
1012.4,3824.5
1012.67,3825.02
1012.94,3827.6
1013.21,3829.92
1013.47,3829.2
1013.74,3832.02
1014.01,3834.68
1014.28,3833.3
1014.54,3833.28
1014.81,3833.98
1015.08,3832.02
1015.35,3831.5
1015.61,3831.86
1015.88,3831.68
1016.15,3830.84
1016.42,3828.58
1016.68,3826.54
1016.95,3826.42
1017.22,3824.18
1017.48,3823.7
1017.75,3822.98
1018.02,3823.56
1018.29,3821.72
1018.55,3819.14
1018.82,3816.78
1019.09,3815.8
1019.36,3815.4
1019.62,3814.42
1019.89,3812.34
1020.16,3811.98
1020.42,3810.2
1020.69,3808.54
1020.96,3809.14
1021.23,3808.8
1021.49,3807.52
1021.76,3807.62
1022.03,3808.4
1022.29,3807.68
1022.56,3808.2
1022.83,3808.44
1023.09,3806.44
1023.36,3804.8
1023.63,3802.5
1023.9,3802.12
1024.16,3801.06
1024.43,3801.08
1024.7,3799.44
1024.96,3799.18
1025.23,3798.44
1025.5,3797.34
1025.76,3796.62
1026.03,3796.12
1026.3,3796.0
1026.56,3795.04
1026.83,3793.04
1027.1,3793.9
1027.37,3793.44
1027.63,3794.34
1027.9,3793.68
1028.17,3793.42
1028.43,3792.08
1028.7,3793.02
1028.97,3792.28
1029.23,3792.32
1029.5,3793.02
1029.77,3792.64
1030.03,3791.5
1030.3,3791.18
1030.57,3790.14
1030.83,3792.34
1031.1,3791.46
1031.37,3791.8
1031.63,3791.9
1031.9,3791.66
1032.17,3790.4
1032.43,3791.48
1032.7,3791.2
1032.97,3791.3
1033.23,3790.82
1033.5,3791.08
1033.77,3790.06
1034.03,3790.5
1034.3,3789.22
1034.57,3789.62
1034.83,3788.52
1035.1,3789.94
1035.36,3789.5
1035.63,3789.62
1035.9,3788.94
1036.16,3789.1
1036.43,3790.26
1036.7,3788.02
1036.96,3789.46
1037.23,3788.38
1037.5,3788.18
1037.76,3787.1
1038.03,3787.32
1038.3,3787.24
1038.56,3787.46
1038.83,3787.56
1039.09,3788.02
1039.36,3788.1
1039.63,3787.52
1039.89,3787.18
1040.16,3786.98
1040.43,3786.9
1040.69,3787.16
1040.96,3785.36
1041.22,3787.46
1041.49,3785.7
1041.76,3787.16
1042.02,3786.06
1042.29,3785.5
1042.55,3786.98
1042.82,3785.9
1043.09,3785.94
1043.35,3785.72
1043.62,3785.98
1043.89,3785.7
1044.15,3785.66
1044.42,3786.5
1044.68,3784.94
1044.95,3785.16
1045.22,3785.68
1045.48,3785.24
1045.75,3784.64
1046.01,3784.42
1046.28,3784.38
1046.55,3784.16
1046.81,3785.4
1047.08,3785.72
1047.34,3784.84
1047.61,3784.66
1047.88,3784.84
1048.14,3784.54
1048.41,3785.32
1048.67,3783.8
1048.94,3784.5
1049.2,3784.06
1049.47,3783.88
1049.74,3783.74
1050.0,3784.5
1050.27,3783.46
1050.53,3783.96
1050.8,3783.46
1051.06,3783.18
1051.33,3782.52
1051.6,3784.54
1051.86,3784.36
1052.13,3784.56
1052.39,3783.62
1052.66,3784.16
1052.92,3783.46
1053.19,3783.12
1053.46,3782.88
1053.72,3783.64
1053.99,3783.56
1054.25,3782.72
1054.52,3783.04
1054.78,3783.52
1055.05,3782.86
1055.32,3784.2
1055.58,3782.94
1055.85,3782.26
1056.11,3783.54
1056.38,3783.5
1056.64,3783.08
1056.91,3782.04
1057.17,3783.24
1057.44,3781.92
1057.7,3783.02
1057.97,3782.52
1058.24,3784.06
1058.5,3782.3
1058.77,3782.1
1059.03,3781.54
1059.3,3782.56
1059.56,3782.54
1059.83,3782.78
1060.09,3781.5
1060.36,3781.76
1060.62,3782.76
1060.89,3781.4
1061.15,3783.12
1061.42,3782.56
1061.68,3782.1
1061.95,3781.62
1062.22,3782.3
1062.48,3781.58
1062.75,3782.18
1063.01,3781.76
1063.28,3781.26
1063.54,3781.34
1063.81,3781.88
1064.07,3782.02
1064.34,3781.5
1064.6,3782.56
1064.87,3782.3
1065.13,3780.42
1065.4,3781.84
1065.66,3780.88
1065.93,3780.98
1066.19,3780.54
1066.46,3780.98
1066.72,3781.24
1066.99,3781.46
1067.25,3781.44
1067.52,3781.08
1067.78,3780.88
1068.05,3780.58
