nm,Intensity
528.629,1850.6
528.713,1850.65
528.797,1851.0
528.881,1850.75
528.965,1850.05
529.05,1849.45
529.134,1850.25
529.218,1850.2
529.302,1851.5
529.387,1850.7
529.471,1851.7
529.555,1848.95
529.639,1850.6
529.724,1850.25
529.808,1849.9
529.892,1850.3
529.976,1849.4
530.06,1850.4
530.145,1850.8
530.229,1850.85
530.313,1850.95
530.397,1852.15
530.481,1851.2
530.566,1850.55
530.65,1850.85
530.734,1850.6
530.818,1852.1
530.902,1852.2
530.987,1851.65
531.071,1853.05
531.155,1851.9
531.239,1851.6
531.323,1852.9
531.408,1855.3
531.492,1856.65
531.576,1861.45
531.66,1878.55
531.744,1961.6
531.829,2264.5
531.913,2850.0
531.997,3289.3
532.081,3296.65
532.165,2838.4
532.249,2218.25
532.334,1919.55
532.418,1858.0
532.502,1852.05
532.586,1852.0
532.67,1851.95
532.754,1850.85
532.839,1850.65
532.923,1850.95
533.007,1851.75
533.091,1850.7
533.175,1850.85
533.259,1851.3
533.344,1851.65
533.428,1852.7
533.512,1856.4
533.596,1864.65
533.68,1883.55
533.764,1908.3
533.848,1930.05
533.933,1953.45
534.017,1959.75
534.101,1957.95
534.185,1964.3
534.269,1956.0
534.353,1961.85
534.437,1964.2
534.522,1966.2
534.606,1961.5
534.69,1966.35
534.774,1957.8
534.858,1953.25
534.942,1952.7
535.026,1956.35
535.111,1957.75
535.195,1959.55
535.279,1952.2
535.363,1949.9
535.447,1942.35
535.531,1939.8
535.615,1931.25
535.699,1932.0
535.783,1925.5
535.868,1923.95
535.952,1925.65
536.036,1920.9
536.12,1921.85
536.204,1924.2
536.288,1920.8
536.372,1924.6
536.456,1923.7
536.54,1926.8
536.625,1921.8
536.709,1926.15
536.793,1918.1
536.877,1921.0
536.961,1922.95
537.045,1921.3
537.129,1919.35
537.213,1924.25
537.297,1920.4
537.381,1924.2
537.465,1920.25
537.55,1921.5
537.634,1918.5
537.718,1919.7
537.802,1919.9
537.886,1919.3
537.97,1917.35
538.054,1919.85
538.138,1919.7
538.222,1923.05
538.306,1922.3
538.39,1922.4
538.474,1925.85
538.558,1924.35
538.643,1930.6
538.727,1933.35
538.811,1940.95
538.895,1940.5
538.979,1943.75
539.063,1945.4
539.147,1948.65
539.231,1942.95
539.315,1935.25
539.399,1925.9
539.483,1928.45
539.567,1919.45
539.651,1917.8
539.735,1918.15
539.819,1919.0
539.903,1915.35
539.987,1914.3
540.071,1913.95
540.155,1912.25
540.239,1917.55
540.324,1916.3
540.408,1915.35
540.492,1913.95
540.576,1914.05
540.66,1914.25
540.744,1915.85
540.828,1909.75
540.912,1911.9
540.996,1916.75
541.08,1915.7
541.164,1917.4
541.248,1914.5
541.332,1908.9
541.416,1912.2
541.5,1917.55
541.584,1915.35
541.668,1916.35
541.752,1917.2
541.836,1915.45
541.92,1912.75
542.004,1913.1
542.088,1911.1
542.172,1919.7
542.256,1919.4
542.34,1920.15
542.424,1919.95
542.508,1921.45
542.592,1922.85
542.676,1925.15
542.76,1926.95
542.844,1927.15
542.928,1928.1
543.012,1932.15
543.096,1925.3
543.18,1919.3
543.264,1918.5
543.348,1919.5
543.432,1919.3
543.516,1917.45
543.6,1919.95
543.684,1919.3
543.768,1919.0
543.852,1911.5
543.936,1921.35
544.02,1916.95
544.104,1915.0
544.187,1917.6
544.271,1913.55
544.355,1913.8
544.439,1915.15
544.523,1916.4
544.607,1914.35
544.691,1917.9
544.775,1911.95
544.859,1917.7
544.943,1915.45
545.027,1914.3
545.111,1912.55
545.195,1914.2
545.279,1915.7
545.363,1917.65
545.447,1919.15
545.531,1920.5
545.615,1917.35
545.699,1916.25
545.783,1913.6
545.866,1916.0
545.95,1915.55
546.034,1915.25
546.118,1908.25
546.202,1914.45
546.286,1922.0
546.37,1918.2
546.454,1920.1
546.538,1921.5
546.622,1921.15
546.706,1919.3
546.79,1921.3
546.874,1916.2
546.957,1921.6
547.041,1919.75
547.125,1918.85
547.209,1922.9
547.293,1921.05
547.377,1923.3
547.461,1921.05
547.545,1920.1
547.629,1920.35
547.713,1921.15
547.797,1920.8
547.88,1922.3
547.964,1923.6
548.048,1922.05
548.132,1919.15
548.216,1924.6
548.3,1919.95
548.384,1921.55
548.468,1919.7
548.552,1924.05
548.635,1918.85
548.719,1922.4
548.803,1925.05
548.887,1923.85
548.971,1923.8
549.055,1927.35
549.139,1923.8
549.223,1921.6
549.306,1922.7
549.39,1922.9
549.474,1926.8
549.558,1922.55
549.642,1925.75
549.726,1926.6
549.81,1926.2
549.893,1930.7
549.977,1922.6
550.061,1925.3
550.145,1926.5
550.229,1925.1
550.313,1927.95
550.397,1924.65
550.48,1927.35
550.564,1926.1
550.648,1928.45
550.732,1930.75
550.816,1935.8
550.9,1931.25
550.983,1930.5
551.067,1934.95
551.151,1932.7
551.235,1931.05
551.319,1934.0
551.403,1933.75
551.486,1930.55
551.57,1931.15
551.654,1935.15
551.738,1929.05
551.822,1927.7
551.906,1925.0
551.989,1934.15
552.073,1929.35
552.157,1935.0
552.241,1935.25
552.325,1929.6
552.408,1931.1
552.492,1931.15
552.576,1930.35
552.66,1923.65
552.744,1932.45
552.828,1931.55
552.911,1930.75
552.995,1925.15
553.079,1927.2
553.163,1929.35
553.247,1928.2
553.33,1929.7
553.414,1928.65
553.498,1930.1
553.582,1932.85
553.665,1927.9
553.749,1931.7
553.833,1931.8
553.917,1936.6
554.001,1934.1
554.084,1930.95
554.168,1927.65
554.252,1929.2
554.336,1931.55
554.419,1930.95
554.503,1928.0
554.587,1930.7
554.671,1941.0
554.755,1933.4
554.838,1934.7
554.922,1934.3
555.006,1937.75
555.09,1930.5
555.173,1934.85
555.257,1936.8
555.341,1936.5
555.425,1933.4
555.508,1930.35
555.592,1932.8
555.676,1932.75
555.76,1931.7
555.843,1940.15
555.927,1938.0
556.011,1936.8
556.095,1936.25
556.178,1937.7
556.262,1930.0
556.346,1936.6
556.43,1936.25
556.513,1939.7
556.597,1940.15
556.681,1937.75
556.764,1939.3
556.848,1934.15
556.932,1937.35
557.016,1936.1
557.099,1941.55
557.183,1936.5
557.267,1936.6
557.35,1940.8
557.434,1937.7
557.518,1939.4
557.602,1943.9
557.685,1945.6
557.769,1943.45
557.853,1941.4
557.936,1938.8
558.02,1936.6
558.104,1941.95
558.188,1939.8
558.271,1939.65
558.355,1940.7
558.439,1950.0
558.522,1947.25
558.606,1944.65
558.69,1942.7
558.773,1945.8
558.857,1944.4
558.941,1941.5
559.024,1943.55
559.108,1939.0
559.192,1939.1
559.275,1942.8
559.359,1939.9
559.443,1940.9
559.526,1943.05
559.61,1943.1
559.694,1942.15
559.777,1942.2
559.861,1947.7
559.945,1946.9
560.028,1942.95
560.112,1941.6
560.196,1938.05
560.279,1938.05
560.363,1938.55
560.447,1947.5
560.53,1940.35
560.614,1939.8
560.698,1937.6
560.781,1942.2
560.865,1936.75
560.949,1939.55
561.032,1938.7
561.116,1948.4
561.2,1944.95
561.283,1948.55
561.367,1941.05
561.45,1945.9
561.534,1943.85
561.618,1945.05
561.701,1947.95
561.785,1943.45
561.869,1947.65
561.952,1947.55
562.036,1951.1
562.119,1939.25
562.203,1944.25
562.287,1948.45
562.37,1952.85
562.454,1948.35
562.538,1954.45
562.621,1955.3
562.705,1954.35
562.788,1950.75
562.872,1954.15
562.956,1954.0
563.039,1951.3
563.123,1953.85
563.206,1954.8
563.29,1954.9
563.374,1962.0
563.457,1963.9
563.541,1972.95
563.624,1982.3
563.708,2009.75
563.791,2045.95
563.875,2084.45
563.959,2116.35
564.042,2116.35
564.126,2080.9
564.209,2032.3
564.293,1994.0
564.376,1988.0
564.46,1983.2
564.544,1982.4
564.627,1978.4
564.711,1983.4
564.794,1972.35
564.878,1978.75
564.961,1967.85
565.045,1977.0
565.129,1968.35
565.212,1963.8
565.296,1970.8
565.379,1975.25
565.463,1973.05
565.546,1974.5
565.63,1977.75
565.713,1994.8
565.797,2021.05
565.881,2061.0
565.964,2101.55
566.048,2163.0
566.131,2197.6
566.215,2200.85
566.298,2142.55
566.382,2063.6
566.465,2011.05
566.549,1981.35
566.632,1972.15
566.716,1971.7
566.799,1967.95
566.883,1969.55
566.966,1965.5
567.05,1963.2
567.133,1963.05
567.217,1969.3
567.3,1976.9
567.384,1984.35
567.467,1975.85
567.551,1971.8
567.634,1965.25
567.718,1960.5
567.802,1954.4
567.885,1961.35
567.968,1961.05
568.052,1959.65
568.135,1956.95
568.219,1956.65
568.302,1952.75
568.386,1962.0
568.469,1956.4
568.553,1955.4
568.636,1958.15
568.72,1955.45
568.803,1951.55
568.887,1962.3
568.97,1960.45
569.054,1958.75
569.137,1959.9
569.221,1962.75
569.304,1962.15
569.388,1963.2
569.471,1958.65
569.555,1961.6
569.638,1969.05
569.722,1962.2
569.805,1960.65
569.888,1965.45
569.972,1966.7
570.055,1965.9
570.139,1966.25
570.222,1976.75
570.306,1972.8
570.389,1974.85
570.473,1971.25
570.556,1972.05
570.64,1985.7
570.723,1984.2
570.806,1985.8
570.89,1984.9
570.973,1984.6
571.057,1994.7
571.14,2011.65
571.224,2053.1
571.307,2127.1
571.39,2190.0
571.474,2244.2
571.557,2255.05
571.641,2190.7
571.724,2125.85
571.808,2048.9
571.891,2032.0
571.974,2003.4
572.058,1998.1
572.141,2000.7
572.225,1987.85
572.308,1988.6
572.391,1986.85
572.475,1988.6
572.558,1976.15
572.642,1974.4
572.725,1970.2
572.808,1974.9
572.892,1964.15
572.975,1964.45
573.059,1964.35
573.142,1968.1
573.225,1969.25
573.309,1968.8
573.392,1969.65
573.475,1966.75
573.559,1962.85
573.642,1975.6
573.726,1977.4
573.809,1979.6
573.892,1983.35
573.976,1979.7
574.059,1975.4
574.142,1970.1
574.226,1965.2
574.309,1958.95
574.393,1964.4
574.476,1963.2
574.559,1962.4
574.643,1966.55
574.726,1966.45
574.809,1957.95
574.893,1967.65
574.976,1966.2
575.059,1975.45
575.143,1989.9
575.226,2001.5
575.309,2035.0
575.393,2082.1
575.476,2110.4
575.559,2123.1
575.643,2103.7
575.726,2067.6
575.809,2061.4
575.893,2065.2
575.976,2072.65
576.059,2081.05
576.143,2114.55
576.226,2129.25
576.309,2142.75
576.393,2126.85
576.476,2099.4
576.559,2084.65
576.643,2066.5
576.726,2074.2
576.809,2072.0
576.893,2073.25
576.976,2072.15
577.059,2066.45
577.142,2060.1
577.226,2030.85
577.309,2021.0
577.392,2013.05
577.476,1995.8
577.559,1990.0
577.642,1987.8
577.726,1978.05
577.809,1977.6
577.892,1966.25
577.975,1973.85
578.059,1966.4
578.142,1966.25
578.225,1962.5
578.309,1966.0
578.392,1964.05
578.475,1962.4
578.558,1965.7
578.642,1960.75
578.725,1967.15
578.808,1959.9
578.891,1961.0
578.975,1956.85
579.058,1962.45
579.141,1972.1
579.224,1963.45
579.308,1961.05
579.391,1960.45
579.474,1959.85
579.557,1963.95
579.641,1962.3
579.724,1963.15
579.807,1965.9
579.89,1964.25
579.974,1965.8
580.057,1958.6
580.14,1964.85
580.223,1963.65
580.307,1956.95
580.39,1963.5
580.473,1954.8
580.556,1961.8
580.639,1959.0
580.723,1967.1
580.806,1963.0
580.889,1965.6
580.972,1962.15
581.056,1957.45
581.139,1960.15
581.222,1953.05
581.305,1958.75
581.388,1965.0
581.472,1959.4
581.555,1961.4
581.638,1956.5
581.721,1959.85
581.804,1963.35
581.888,1960.5
581.971,1963.95
582.054,1958.8
582.137,1957.85
582.22,1955.95
582.304,1958.55
582.387,1958.1
582.47,1953.45
582.553,1958.6
582.636,1955.8
582.719,1960.25
582.803,1959.9
582.886,1955.55
582.969,1958.5
583.052,1956.8
583.135,1957.2
583.219,1953.95
583.302,1953.4
583.385,1955.55
583.468,1954.65
583.551,1960.35
583.634,1953.55
583.717,1956.3
583.801,1963.35
583.884,1957.7
583.967,1953.2
584.05,1952.45
584.133,1956.35
584.216,1956.95
584.299,1949.35
584.383,1952.8
584.466,1953.35
584.549,1956.1
584.632,1958.3
584.715,1950.05
584.798,1953.6
584.881,1951.35
584.965,1951.75
585.048,1952.8
585.131,1959.2
585.214,1952.9
585.297,1947.15
585.38,1951.65
585.463,1949.95
585.546,1950.65
585.629,1947.4
585.713,1952.1
585.796,1956.8
585.879,1956.3
585.962,1956.15
586.045,1957.75
586.128,1951.05
586.211,1954.0
586.294,1954.95
586.377,1953.55
586.461,1955.4
586.544,1950.95
586.627,1952.3
586.71,1955.8
586.793,1954.55
586.876,1948.4
586.959,1949.3
587.042,1953.6
587.125,1952.5
587.208,1954.9
587.291,1959.4
587.374,1955.05
587.457,1953.7
587.541,1958.25
587.624,1959.0
587.707,1957.9
587.79,1954.85
587.873,1952.65
587.956,1959.95
588.039,1959.55
588.122,1960.9
588.205,1958.3
588.288,1947.6
588.371,1956.0
588.454,1955.7
588.537,1957.7
588.62,1954.25
588.703,1954.15
588.786,1950.6
588.869,1954.65
588.952,1953.8
589.035,1954.25
589.118,1957.35
589.201,1952.0
589.284,1954.1
589.368,1953.9
589.451,1960.45
589.534,1961.85
589.617,1957.75
589.7,1955.3
589.783,1957.4
589.866,1951.1
589.949,1950.35
590.032,1947.7
590.115,1963.45
590.198,1961.05
590.281,1957.1
590.364,1960.65
590.447,1957.95
590.53,1957.5
590.613,1957.95
590.696,1954.95
590.779,1956.75
590.862,1947.55
590.945,1961.75
591.028,1962.0
591.111,1961.75
591.194,1950.9
591.277,1959.35
591.36,1953.55
591.443,1950.55
591.525,1955.85
591.608,1959.1
591.691,1962.7
591.774,1961.9
591.857,1957.6
591.94,1957.4
592.023,1957.0
592.106,1957.0
592.189,1958.95
592.272,1952.35
592.355,1958.05
592.438,1957.55
592.521,1962.55
592.604,1959.15
592.687,1960.75
592.77,1956.3
592.853,1962.55
592.936,1960.7
593.019,1965.15
593.102,1965.85
593.185,1955.6
593.267,1958.65
593.35,1963.0
593.433,1961.15
593.516,1957.0
593.599,1958.95
593.682,1958.95
593.765,1962.1
593.848,1960.1
593.931,1965.0
594.014,1959.2
594.097,1967.7
594.18,1966.55
594.263,1961.8
594.345,1960.9
594.428,1963.15
594.511,1965.3
594.594,1966.2
594.677,1961.0
594.76,1962.15
594.843,1959.4
594.926,1963.3
595.009,1962.3
595.092,1964.05
595.174,1960.6
595.257,1967.7
595.34,1964.75
595.423,1960.2
595.506,1960.8
595.589,1968.05
595.672,1962.7
595.755,1969.45
595.837,1967.35
595.92,1966.65
596.003,1968.95
596.086,1961.7
596.169,1965.3
596.252,1963.95
596.335,1964.85
596.417,1967.45
596.5,1966.55
596.583,1969.95
596.666,1964.8
596.749,1965.45
596.832,1973.8
596.915,1968.45
596.997,1966.35
597.08,1963.6
597.163,1968.6
597.246,1965.85
597.329,1963.05
597.412,1967.4
597.494,1968.3
597.577,1973.7
597.66,1966.15
597.743,1968.55
597.826,1970.15
597.909,1968.95
597.991,1965.15
598.074,1969.25
598.157,1965.0
598.24,1969.25
598.323,1969.5
598.405,1970.2
598.488,1966.3
598.571,1972.35
598.654,1965.1
598.737,1972.25
598.819,1978.05
598.902,1973.7
598.985,1972.4
599.068,1974.3
599.151,1974.3
599.233,1971.7
599.316,1979.5
599.399,1973.75
599.482,1980.5
599.565,1978.25
599.647,1972.55
599.73,1970.1
599.813,1974.3
599.896,1976.2
599.978,1971.9
600.061,1979.85
600.144,1971.5
600.227,1975.35
600.309,1974.05
600.392,1969.05
600.475,1974.35
600.558,1975.4
600.641,1977.55
600.723,1967.6
600.806,1965.4
600.889,1967.45
600.972,1970.0
601.054,1973.3
601.137,1975.85
601.22,1970.7
601.302,1972.05
601.385,1977.5
601.468,1977.45
601.551,1971.3
601.633,1976.65
601.716,1984.2
601.799,1972.7
601.882,1972.35
601.964,1977.3
602.047,1987.95
602.13,1977.35
602.212,1970.8
602.295,1975.65
602.378,1978.2
602.461,1974.8
602.543,1974.9
602.626,1980.75
602.709,1977.6
602.791,1980.1
602.874,1972.9
602.957,1970.05
603.04,1978.7
603.122,1967.45
603.205,1979.85
603.288,1981.4
603.37,1976.4
603.453,1963.55
603.536,1967.75
603.618,1978.4
603.701,1970.9
603.784,1978.55
603.866,1979.9
603.949,1974.3
604.032,1979.9
604.114,1971.85
604.197,1974.0
604.28,1979.95
604.362,1976.0
604.445,1972.25
604.528,1972.05
604.61,1978.95
604.693,1978.9
604.776,1978.2
604.858,1978.3
604.941,1970.1
605.024,1974.15
605.106,1968.7
605.189,1972.35
605.272,1978.7
605.354,1974.5
605.437,1974.4
605.519,1968.8
605.602,1971.85
605.685,1981.8
605.767,1973.5
605.85,1977.3
605.933,1979.85
606.015,1970.3
606.098,1972.15
606.18,1971.5
606.263,1969.85
606.346,1975.3
606.428,1977.65
606.511,1973.75
606.593,1971.3
606.676,1966.25
606.759,1972.3
606.841,1969.35
606.924,1972.2
607.006,1971.3
607.089,1969.45
607.172,1974.6
607.254,1973.7
607.337,1976.4
607.419,1972.0
607.502,1971.65
607.585,1970.0
607.667,1978.35
607.75,1975.2
607.832,1972.2
607.915,1972.8
607.997,1971.1
608.08,1968.35
608.163,1973.35
608.245,1973.45
608.328,1968.7
608.41,1971.8
608.493,1971.9
608.575,1972.3
608.658,1964.75
608.74,1967.05
608.823,1974.35
608.906,1976.2
608.988,1978.75
609.071,1976.95
609.153,1969.45
609.236,1970.5
609.318,1973.1
609.401,1970.15
609.483,1965.75
609.566,1977.3
609.648,1965.75
609.731,1966.15
609.813,1967.7
609.896,1974.4
609.979,1974.75
610.061,1971.0
610.144,1970.65
610.226,1968.55
610.309,1972.55
610.391,1970.95
610.474,1967.6
610.556,1978.3
610.639,1977.3
610.721,1974.0
610.804,1985.55
610.886,1981.45
610.969,1976.15
611.051,1979.4
611.134,1976.05
611.216,1974.0
611.299,1975.1
611.381,1972.95
611.464,1974.1
611.546,1977.45
611.628,1973.7
611.711,1970.8
611.793,1971.35
611.876,1968.8
611.958,1965.4
612.041,1964.45
612.123,1978.3
612.206,1976.15
612.288,1961.6
612.371,1962.7
612.453,1965.9
612.536,1969.15
612.618,1974.6
612.7,1969.15
612.783,1969.85
612.865,1968.85
612.948,1966.5
613.03,1969.0
613.113,1966.8
613.195,1967.85
613.278,1968.0
613.36,1968.3
613.442,1972.0
613.525,1966.55
613.607,1974.5
613.69,1973.9
613.772,1975.3
613.855,1969.65
613.937,1964.6
614.019,1963.4
614.102,1964.95
614.184,1962.35
614.267,1968.65
614.349,1974.65
614.431,1966.2
614.514,1963.75
614.596,1961.05
614.679,1972.95
614.761,1966.5
614.843,1972.8
614.926,1975.75
615.008,1972.45
615.091,1969.9
615.173,1966.0
615.255,1967.6
615.338,1972.9
615.42,1969.6
615.503,1961.25
615.585,1962.2
615.667,1971.05
615.75,1966.15
615.832,1972.9
615.914,1973.4
615.997,1976.05
616.079,1970.4
616.161,1966.95
616.244,1969.35
616.326,1972.9
616.409,1974.9
616.491,1968.1
616.573,1970.35
616.656,1968.25
616.738,1973.7
616.82,1978.0
616.903,1982.15
616.985,1981.7
617.067,1982.8
617.15,1982.45
617.232,1978.1
617.314,1977.7
617.397,1973.8
617.479,1979.25
617.561,1983.0
617.644,1979.95
617.726,1978.0
617.808,1988.2
617.89,1986.3
617.973,1982.15
618.055,1978.2
618.137,1971.6
618.22,1977.15
618.302,1978.9
618.384,1979.75
618.467,1976.55
618.549,1988.65
618.631,1987.8
618.714,1977.95
618.796,1976.15
618.878,1979.9
618.96,1980.05
619.043,1981.7
619.125,1981.45
619.207,1976.8
619.289,1980.8
619.372,1988.3
619.454,1985.35
619.536,1986.45
619.619,1988.3
619.701,1993.6
619.783,1996.15
619.865,1986.95
619.948,1986.8
620.03,1985.15
620.112,1984.6
620.194,1982.9
620.277,1984.2
620.359,1988.6
620.441,1992.95
620.523,1988.7
620.606,1983.65
620.688,1995.35
620.77,1986.05
620.852,1989.65
620.935,1989.05
621.017,1996.5
621.099,2002.55
621.181,2007.75
621.263,2008.15
621.346,2004.6
621.428,2010.8
621.51,2023.4
621.592,2019.85
621.675,2028.7
621.757,2038.65
621.839,2042.0
621.921,2048.15
622.003,2048.75
622.086,2050.7
622.168,2058.9
622.25,2061.7
622.332,2058.7
622.414,2045.3
622.497,2043.95
622.579,2038.2
622.661,2027.25
622.743,2021.25
622.825,2013.7
622.907,1998.0
622.99,2003.2
623.072,1996.65
623.154,1997.6
623.236,2000.1
623.318,1987.7
623.401,1984.8
623.483,1987.6
623.565,1986.55
623.647,1987.9
623.729,1979.85
623.811,1981.7
623.893,1994.65
623.976,1992.1
624.058,1985.45
624.14,1986.35
624.222,1981.8
624.304,1979.95
624.386,1988.0
624.468,1986.2
624.551,1985.75
624.633,1982.45
624.715,1981.55
624.797,1989.85
624.879,1984.1
624.961,1987.6
625.043,1985.35
625.125,1994.2
625.208,1996.0
625.29,1994.2
625.372,1989.9
625.454,1996.1
625.536,2001.05
625.618,2013.2
625.7,2013.75
625.782,2007.95
625.864,2011.15
625.947,2015.7
626.029,2029.4
626.111,2038.3
626.193,2054.75
626.275,2073.65
626.357,2108.9
626.439,2151.75
626.521,2201.5
626.603,2288.65
626.685,2400.6
626.767,2519.15
626.849,2736.9
626.932,2948.8
627.014,3149.2
627.096,3175.7
627.178,3180.8
627.26,3158.95
627.342,3069.7
627.424,2973.85
627.506,2885.05
627.588,2835.85
627.67,2794.05
627.752,2712.0
627.834,2696.7
627.916,2708.5
627.998,2683.65
628.08,2722.4
628.162,2811.5
628.244,2909.65
628.326,3044.0
628.408,3142.2
628.49,3249.55
628.572,3168.5
628.654,2992.85
628.736,2805.75
628.818,2716.85
628.901,2649.65
628.983,2593.0
629.065,2559.05
629.147,2541.4
629.229,2513.75
629.311,2526.1
629.393,2543.45
629.475,2482.85
629.557,2424.7
629.639,2405.15
629.721,2374.3
629.803,2354.25
629.885,2344.7
629.966,2322.25
630.048,2329.2
630.13,2337.0
630.212,2315.4
630.294,2312.95
630.376,2321.75
630.458,2303.6
630.54,2285.25
630.622,2260.05
630.704,2217.75
630.786,2191.0
630.868,2167.2
630.95,2140.95
631.032,2099.0
631.114,2070.95
631.196,2049.6
631.278,2038.75
631.36,2025.6
631.442,2024.0
631.524,2022.4
631.606,2019.35
631.688,2014.2
631.77,2008.3
631.852,1999.1
631.933,1997.3
632.015,1988.25
632.097,1989.2
632.179,1989.95
632.261,1991.8
632.343,1991.35
632.425,1991.0
632.507,1984.8
632.589,1982.25
632.671,1978.5
632.753,1986.55
632.835,1980.5
632.916,1976.05
632.998,1978.1
633.08,1968.65
633.162,1972.5
633.244,1978.25
633.326,1975.5
633.408,1970.25
633.49,1968.15
633.572,1973.75
633.653,1969.55
633.735,1965.9
633.817,1967.6
633.899,1968.15
633.981,1969.35
634.063,1967.15
634.145,1962.6
634.227,1960.05
634.308,1971.7
634.39,1969.7
634.472,1960.8
634.554,1954.5
634.636,1959.3
634.718,1961.9
634.8,1962.6
634.881,1956.5
634.963,1970.95
635.045,1962.65
635.127,1963.3
635.209,1959.45
635.291,1959.3
635.372,1956.3
635.454,1956.2
635.536,1948.55
635.618,1954.8
635.7,1957.3
635.782,1954.4
635.863,1955.65
635.945,1951.5
636.027,1956.05
636.109,1961.8
636.191,1956.9
636.272,1952.2
636.354,1951.35
636.436,1956.0
636.518,1960.3
636.6,1960.4
