nm,Intensity
526.5,830.5
526.637,830.9
526.774,829.8
526.91,830.4
527.047,829.6
527.184,829.6
527.32,828.7
527.457,829.0
527.594,829.6
527.73,829.7
527.867,829.7
528.004,829.1
528.14,828.2
528.277,828.8
528.414,829.5
528.55,831.0
528.687,828.8
528.823,828.7
528.96,828.7
529.096,828.8
529.233,828.8
529.37,829.3
529.506,828.6
529.643,827.9
529.779,831.0
529.916,829.7
530.052,829.6
530.189,830.2
530.325,829.8
530.462,831.1
530.598,829.7
530.735,828.8
530.871,830.1
531.008,829.5
531.144,828.4
531.28,829.7
531.417,828.6
531.553,829.3
531.69,830.6
531.826,830.2
531.962,833.1
532.099,858.8
532.235,863.8
532.372,836.8
532.508,829.6
532.644,831.0
532.781,828.8
532.917,829.4
533.053,829.9
533.19,830.0
533.326,828.9
533.462,831.8
533.599,842.6
533.735,947.3
533.871,1423.6
534.007,2122.7
534.144,2411.0
534.28,2351.4
534.416,2231.8
534.552,2124.0
534.689,2015.5
534.825,1884.1
534.961,1739.9
535.097,1588.4
535.234,1473.1
535.37,1375.7
535.506,1290.7
535.642,1219.4
535.778,1166.6
535.914,1116.7
536.051,1079.4
536.187,1054.3
536.323,1038.8
536.459,1024.5
536.595,1011.5
536.731,1007.8
536.867,1010.7
537.003,999.3
537.14,989.7
537.276,988.5
537.412,979.3
537.548,972.3
537.684,969.0
537.82,973.9
537.956,968.6
538.092,986.5
538.228,991.5
538.364,999.9
538.5,1003.0
538.636,997.6
538.772,980.0
538.908,961.4
539.044,934.0
539.18,916.7
539.316,905.0
539.452,897.2
539.588,894.0
539.724,894.1
539.86,896.3
539.996,890.0
540.132,889.0
540.268,887.5
540.403,886.1
540.539,884.9
540.675,879.8
540.811,879.0
540.947,878.3
541.083,877.7
541.219,877.8
541.355,880.4
541.49,877.1
541.626,882.8
541.762,875.1
541.898,878.3
542.034,878.0
542.17,877.5
542.305,875.1
542.441,876.8
542.577,874.6
542.713,874.7
542.848,875.3
542.984,879.1
543.12,881.7
543.256,881.9
543.391,882.9
543.527,886.1
543.663,883.9
543.799,892.5
543.934,895.4
544.07,890.0
544.206,887.8
544.341,881.8
544.477,880.4
544.613,876.6
544.748,878.5
544.884,877.7
545.02,873.7
545.155,875.1
545.291,870.1
545.427,870.4
545.562,867.9
545.698,867.7
545.833,867.9
545.969,866.3
546.105,868.0
546.24,865.7
546.376,867.3
546.511,864.3
546.647,867.2
546.782,865.8
546.918,865.5
547.053,866.8
547.189,867.5
547.325,869.7
547.46,870.4
547.596,870.9
547.731,871.5
547.867,873.6
548.002,874.4
548.137,874.5
548.273,873.3
548.408,875.1
548.544,872.7
548.679,869.1
548.815,869.5
548.95,868.8
549.086,867.5
549.221,865.1
549.356,864.9
549.492,864.9
549.627,866.1
549.763,865.9
549.898,866.6
550.033,872.8
550.169,892.8
550.304,952.8
550.439,949.5
550.575,893.2
550.71,876.3
550.845,869.1
550.981,861.7
551.116,861.8
551.251,859.2
551.387,860.7
551.522,859.8
551.657,860.4
551.793,861.2
551.928,860.9
552.063,860.3
552.198,860.8
552.334,859.7
552.469,860.0
552.604,861.5
552.739,862.8
552.874,864.4
553.01,861.4
553.145,860.2
553.28,861.8
553.415,860.0
553.55,858.0
553.686,863.5
553.821,873.7
553.956,878.3
554.091,886.9
554.226,890.0
554.361,892.9
554.497,902.2
554.632,903.0
554.767,902.7
554.902,895.1
555.037,893.2
555.172,892.7
555.307,896.8
555.442,913.5
555.577,939.5
555.712,948.2
555.848,931.7
555.983,910.2
556.118,896.8
556.253,886.8
556.388,873.7
556.523,871.5
556.658,869.5
556.793,871.7
556.928,877.6
557.063,884.2
557.198,885.8
557.333,879.9
557.468,874.4
557.603,871.3
557.738,872.0
557.873,871.8
558.008,870.9
558.142,872.3
558.277,871.4
558.412,870.1
558.547,869.8
558.682,869.5
558.817,873.8
558.952,878.9
559.087,882.4
559.222,880.9
559.357,875.7
559.492,871.0
559.626,866.4
559.761,867.0
559.896,867.2
560.031,867.4
560.166,867.6
560.301,867.4
560.435,868.7
560.57,867.2
560.705,871.3
560.84,872.4
560.975,874.6
561.109,877.1
561.244,874.1
561.379,881.4
561.514,896.5
561.649,926.0
561.783,961.5
561.918,1083.4
562.053,1542.1
562.188,1687.5
562.322,1198.7
562.457,948.3
562.592,901.7
562.726,908.3
562.861,962.2
562.996,1062.4
563.131,1100.9
563.265,1014.1
563.4,937.5
563.535,909.2
563.669,898.9
563.804,891.8
563.939,888.6
564.073,894.5
564.208,897.6
564.342,897.4
564.477,901.2
564.612,895.8
564.746,892.4
564.881,896.3
565.015,895.0
565.15,894.0
565.285,891.4
565.419,888.1
565.554,881.9
565.688,875.0
565.823,872.3
565.957,868.0
566.092,868.2
566.227,870.5
566.361,869.5
566.496,874.5
566.63,878.5
566.765,894.0
566.899,927.8
567.034,957.0
567.168,942.4
567.303,915.9
567.437,905.6
567.572,910.9
567.706,941.8
567.84,982.3
567.975,994.6
568.109,988.7
568.244,990.0
568.378,1006.9
568.513,1012.7
568.647,991.4
568.781,955.8
568.916,927.4
569.05,910.8
569.185,907.0
569.319,901.7
569.453,897.3
569.588,887.4
569.722,885.6
569.857,886.1
569.991,885.8
570.125,884.4
570.26,886.2
570.394,882.9
570.528,879.2
570.663,880.2
570.797,882.0
570.931,881.0
571.065,880.8
571.2,883.0
571.334,883.6
571.468,889.9
571.603,890.2
571.737,893.6
571.871,896.1
572.005,898.2
572.14,900.1
572.274,904.6
572.408,910.4
572.542,915.3
572.677,913.7
572.811,911.8
572.945,904.6
573.079,896.9
573.213,893.4
573.348,893.3
573.482,888.9
573.616,889.0
573.75,892.1
573.884,891.4
574.018,890.0
574.153,889.6
574.287,888.7
574.421,881.5
574.555,876.4
574.689,879.1
574.823,873.5
574.957,874.7
575.092,873.3
575.226,874.2
575.36,875.7
575.494,873.4
575.628,872.3
575.762,871.1
575.896,878.6
576.03,880.4
576.164,889.1
576.298,900.5
576.432,914.3
576.566,925.8
576.7,929.0
576.834,925.0
576.968,897.5
577.103,881.0
577.237,880.2
577.371,875.9
577.505,874.2
577.639,875.5
577.773,875.9
577.907,873.3
578.04,878.4
578.174,880.8
578.308,876.2
578.442,873.0
578.576,872.1
578.71,874.5
578.844,875.5
578.978,876.5
579.112,875.9
579.246,875.7
579.38,874.3
579.514,876.4
579.648,873.9
579.782,874.4
579.916,874.5
580.049,874.3
580.183,874.6
580.317,874.2
580.451,876.9
580.585,880.2
580.719,883.2
580.853,896.3
580.986,918.4
581.12,963.5
581.254,948.4
581.388,923.6
581.522,950.2
581.656,1027.7
581.789,1109.7
581.923,1054.6
582.057,959.7
582.191,910.3
582.325,890.8
582.458,887.4
582.592,882.6
582.726,879.0
582.86,876.5
582.993,875.3
583.127,874.6
583.261,877.7
583.395,876.2
583.528,875.2
583.662,874.2
583.796,873.5
583.93,874.3
584.063,872.7
584.197,873.5
584.331,874.4
584.464,874.0
584.598,876.5
584.732,876.9
584.865,873.3
584.999,875.0
585.133,872.8
585.266,873.1
585.4,871.8
585.534,872.9
585.667,871.7
585.801,874.0
585.935,868.9
586.068,871.5
586.202,871.3
586.336,872.8
586.469,871.9
586.603,871.7
586.736,871.1
586.87,871.6
587.004,871.6
587.137,870.2
587.271,871.6
587.404,875.9
587.538,871.3
587.671,871.0
587.805,871.9
587.938,871.0
588.072,867.7
588.206,870.0
588.339,872.1
588.473,872.6
588.606,870.4
588.74,872.1
588.873,870.3
589.007,871.8
589.14,872.0
589.274,871.3
589.407,870.2
589.541,871.1
589.674,869.9
589.808,871.8
589.941,868.7
590.074,870.1
590.208,871.9
590.341,869.6
590.475,868.1
590.608,870.2
590.742,873.9
590.875,874.8
591.009,868.4
591.142,870.2
591.275,871.1
591.409,867.1
591.542,869.8
591.676,870.3
591.809,872.2
591.942,872.6
592.076,868.2
592.209,869.9
592.342,872.0
592.476,870.1
592.609,871.8
592.743,870.9
592.876,875.4
593.009,869.8
593.143,871.2
593.276,869.3
593.409,871.3
593.543,871.1
593.676,872.4
593.809,871.9
593.942,873.2
594.076,871.7
594.209,871.9
594.342,872.6
594.476,871.9
594.609,868.8
594.742,869.8
594.875,872.4
595.009,869.8
595.142,870.4
595.275,870.7
595.408,873.6
595.542,872.3
595.675,870.8
595.808,871.6
595.941,870.8
596.075,872.6
596.208,871.5
596.341,870.8
596.474,874.4
596.607,870.7
596.741,872.5
596.874,869.4
597.007,875.4
597.14,871.1
597.273,871.9
597.406,870.8
597.54,873.4
597.673,873.2
597.806,874.1
597.939,873.0
598.072,873.1
598.205,874.9
598.338,872.9
598.472,872.5
598.605,871.6
598.738,872.1
598.871,874.0
599.004,875.2
599.137,875.7
599.27,872.1
599.403,874.8
599.536,873.0
599.67,870.9
599.803,873.9
599.936,876.3
600.069,872.1
600.202,872.5
600.335,871.5
600.468,876.7
600.601,874.5
600.734,871.5
600.867,875.0
601.0,875.7
601.133,874.3
601.266,872.6
601.399,876.7
601.532,875.5
601.665,876.6
601.798,876.0
601.931,876.7
602.064,875.1
602.197,876.9
602.33,876.5
602.463,878.5
602.596,874.0
602.729,877.3
602.862,880.1
602.995,876.9
603.128,878.3
603.261,877.2
603.394,877.1
603.527,876.2
603.66,877.8
603.793,875.6
603.925,876.7
604.058,876.4
604.191,877.5
604.324,878.5
604.457,878.0
604.59,878.0
604.723,873.4
604.856,879.2
604.989,876.4
605.122,878.2
605.254,879.5
605.387,878.9
605.52,878.6
605.653,880.6
605.786,876.4
605.919,878.7
606.052,875.9
606.184,876.3
606.317,878.7
606.45,879.6
606.583,880.4
606.716,880.7
606.849,881.3
606.981,878.1
607.114,879.0
607.247,882.7
607.38,878.2
607.513,882.3
607.645,883.2
607.778,881.8
607.911,882.6
608.044,880.5
608.177,883.7
608.309,882.8
608.442,880.5
608.575,882.9
608.708,885.9
608.84,882.4
608.973,883.9
609.106,886.3
609.239,883.0
609.371,883.7
609.504,884.7
609.637,882.8
609.769,882.9
609.902,887.5
610.035,887.7
610.168,885.9
610.3,886.2
610.433,886.3
610.566,881.1
610.698,882.7
610.831,886.4
610.964,883.4
611.096,888.2
611.229,887.5
611.362,884.7
611.494,887.2
611.627,887.8
611.76,889.1
611.892,891.0
612.025,886.8
612.158,889.4
612.29,891.1
612.423,890.6
612.556,891.1
612.688,892.3
612.821,887.6
612.953,894.8
613.086,893.4
613.219,893.1
613.351,893.6
613.484,890.3
613.616,892.9
613.749,890.4
613.882,890.6
614.014,891.5
614.147,889.2
614.279,894.4
614.412,893.6
614.544,898.4
614.677,893.8
614.809,895.2
614.942,893.6
615.075,895.1
615.207,894.1
615.34,896.2
615.472,894.0
615.605,894.3
615.737,896.6
615.87,896.7
616.002,894.9
616.135,899.2
616.267,898.6
616.4,896.3
616.532,898.7
616.665,899.8
616.797,900.2
616.93,900.1
617.062,902.6
617.195,906.0
617.327,905.5
617.46,901.3
617.592,905.4
617.725,904.1
617.857,906.6
617.989,904.2
618.122,906.3
618.254,902.1
618.387,906.2
618.519,907.0
618.652,905.4
618.784,907.7
618.917,902.9
619.049,901.3
619.181,904.3
619.314,904.0
619.446,905.1
619.579,907.3
619.711,902.1
619.843,902.5
619.976,903.3
620.108,903.7
620.241,906.0
620.373,904.0
620.505,907.0
620.638,903.2
620.77,904.3
620.902,907.2
621.035,908.2
621.167,903.9
621.299,909.1
621.432,907.3
621.564,907.4
621.696,908.6
621.829,902.8
621.961,908.3
622.093,907.5
622.226,908.5
622.358,908.4
622.49,910.0
622.623,905.5
622.755,908.1
622.887,909.5
623.02,908.0
623.152,910.5
623.284,908.4
623.416,911.5
623.549,909.3
623.681,913.2
623.813,909.2
623.946,911.1
624.078,912.6
624.21,915.7
624.342,917.6
624.475,915.1
624.607,913.9
624.739,914.1
624.871,912.8
625.004,911.0
625.136,913.8
625.268,916.2
625.4,909.3
625.533,911.9
625.665,914.9
625.797,914.1
625.929,915.2
626.061,915.7
626.194,915.3
626.326,919.1
626.458,920.9
626.59,921.6
626.722,931.7
626.855,942.3
626.987,962.6
627.119,995.4
627.251,1009.3
627.383,1022.7
627.516,1019.9
627.648,1006.0
627.78,994.4
627.912,986.9
628.044,982.1
628.176,975.7
628.308,991.5
628.441,998.9
628.573,1007.9
628.705,1026.6
628.837,1049.4
628.969,1065.7
629.101,1086.5
629.233,1098.5
629.366,1111.7
629.498,1117.0
629.63,1121.4
629.762,1117.3
629.894,1102.3
630.026,1091.5
630.158,1070.3
630.29,1066.6
630.422,1054.2
630.554,1041.6
630.687,1030.0
630.819,1020.3
630.951,1004.1
631.083,988.6
631.215,979.1
631.347,970.3
631.479,970.5
631.611,960.5
631.743,957.2
631.875,959.0
632.007,958.7
632.139,968.0
632.271,978.3
632.403,985.6
632.535,977.3
632.667,961.3
632.799,947.0
632.931,947.0
633.063,956.0
633.195,969.5
633.328,987.7
633.46,984.1
633.592,968.3
633.724,957.2
633.856,958.6
633.988,962.7
634.12,979.1
634.252,1009.0
634.384,1050.7
634.516,1091.7
634.647,1126.4
634.779,1157.8
634.911,1174.0
635.043,1196.5
635.175,1283.1
635.307,1411.6
635.439,1480.0
635.571,1475.8
635.703,1458.4
635.835,1406.8
635.967,1312.0
636.099,1209.0
636.231,1123.8
636.363,1069.4
636.495,1029.0
636.627,1013.0
636.759,995.0
636.891,977.9
637.023,960.8
637.155,957.4
637.286,952.7
637.418,953.5
637.55,951.3
637.682,949.3
637.814,945.0
637.946,943.4
638.078,931.8
638.21,937.5
638.342,932.4
638.474,934.4
638.605,930.6
638.737,933.4
638.869,937.2
639.001,935.1
639.133,929.5
639.265,928.4
639.397,933.2
639.529,934.0
639.66,936.6
639.792,946.9
639.924,949.6
640.056,945.8
640.188,939.5
640.32,933.7
640.452,935.2
640.583,930.4
640.715,931.2
640.847,930.1
640.979,938.1
641.111,939.0
641.243,939.2
641.374,943.5
641.506,946.9
641.638,939.2
641.77,943.3
641.902,936.8
642.033,931.0
642.165,926.3
642.297,928.8
642.429,929.6
642.561,925.7
642.692,928.1
642.824,922.1
642.956,926.2
643.088,927.2
643.22,926.9
643.351,926.4
643.483,928.3
643.615,923.1
643.747,925.4
643.878,926.2
644.01,930.4
644.142,923.8
644.274,928.7
644.405,926.1
644.537,925.1
644.669,923.9
644.801,928.1
644.932,924.2
645.064,923.8
645.196,931.1
645.328,924.5
645.459,924.8
645.591,926.3
645.723,922.9
645.854,921.9
645.986,930.4
646.118,928.8
646.25,924.5
646.381,932.5
646.513,926.1
646.645,930.2
646.776,929.2
646.908,926.2
647.04,930.6
647.172,930.4
647.303,931.6
647.435,932.2
647.567,930.9
647.698,925.3
647.83,926.3
647.962,929.0
648.093,933.7
648.225,929.1
648.357,933.6
648.488,933.0
648.62,930.6
648.752,929.9
648.883,934.4
649.015,929.6
649.147,929.1
649.278,932.8
649.41,930.1
649.542,932.4
649.673,929.9
649.805,927.2
649.937,929.2
650.068,929.6
650.2,931.3
650.331,934.5
650.463,933.1
650.595,932.7
650.726,928.8
650.858,929.0
650.99,931.1
651.121,930.9
651.253,930.8
651.384,931.4
651.516,930.7
651.648,932.8
651.779,933.6
651.911,930.0
652.042,935.8
652.174,930.8
652.306,930.3
652.437,933.8
652.569,933.3
652.7,930.1
652.832,934.9
652.963,928.7
653.095,932.7
653.227,932.5
653.358,934.3
653.49,936.8
653.621,937.0
653.753,933.2
653.884,931.2
654.016,931.3
654.148,932.7
654.279,936.0
654.411,936.7
654.542,933.8
654.674,934.7
654.805,935.7
654.937,930.7
655.068,933.1
655.2,935.9
655.331,935.2
655.463,937.5
655.595,932.3
655.726,931.3
655.858,937.9
655.989,936.5
656.121,937.7
656.252,931.3
656.384,935.1
656.515,932.6
656.647,940.9
656.778,936.2
656.91,939.6
657.041,939.7
657.173,943.1
657.304,936.6
657.436,940.0
657.567,933.3
657.699,937.8
657.83,942.0
657.962,937.7
658.093,933.3
658.225,933.3
658.356,935.7
658.488,939.1
658.619,933.8
658.751,940.8
658.882,937.3
659.013,935.6
659.145,937.8
659.276,937.7
659.408,938.7
659.539,941.6
659.671,939.1
659.802,941.6
659.934,939.0
660.065,942.7
660.197,937.4
660.328,939.9
660.459,938.2
660.591,935.0
660.722,938.4
660.854,937.1
660.985,938.9
661.117,937.2
661.248,940.8
661.38,939.8
661.511,938.8
661.642,934.4
661.774,940.2
661.905,939.4
662.037,937.9
662.168,933.4
662.299,939.7
662.431,937.3
662.562,939.5
662.694,939.6
662.825,936.5
662.957,938.9
663.088,938.0
