nm,Intensity
526.547,833.25
526.684,833.35
526.821,833.5
526.958,833.6
527.095,833.8
527.232,832.55
527.368,834.7
527.505,833.2
527.642,833.3
527.779,832.35
527.916,832.55
528.052,832.25
528.189,833.15
528.326,832.3
528.463,832.6
528.599,833.35
528.736,832.3
528.873,832.75
529.009,833.6
529.146,832.85
529.283,832.9
529.419,833.4
529.556,833.3
529.693,833.4
529.829,832.6
529.966,833.75
530.103,832.2
530.239,833.15
530.376,833.1
530.512,833.45
530.649,832.55
530.785,833.45
530.922,832.95
531.059,832.1
531.195,832.95
531.332,833.95
531.468,831.65
531.605,833.4
531.741,832.9
531.878,834.05
532.014,837.25
532.151,850.5
532.287,845.95
532.423,835.85
532.56,832.9
532.696,833.25
532.833,833.4
532.969,834.3
533.106,833.15
533.242,833.6
533.378,834.3
533.515,836.55
533.651,856.05
533.787,1017.9
533.924,1611.4
534.06,2274.2
534.196,2491.0
534.333,2474.35
534.469,2402.95
534.605,2369.05
534.742,2326.95
534.878,2286.5
535.014,2212.9
535.15,2167.35
535.287,2151.75
535.423,2122.45
535.559,2127.35
535.695,2115.45
535.832,2099.1
535.968,2063.2
536.104,2038.0
536.24,2023.45
536.376,2012.95
536.513,2001.6
536.649,2001.1
536.785,2006.95
536.921,1993.85
537.057,2006.75
537.193,2003.4
537.329,1993.45
537.465,1992.6
537.602,1999.7
537.738,1994.75
537.874,1997.0
538.01,2000.8
538.146,2023.4
538.282,2016.65
538.418,2014.05
538.554,2017.7
538.69,2019.15
538.826,2034.4
538.962,2026.35
539.098,2023.5
539.234,2033.45
539.37,2048.3
539.506,2050.6
539.642,2060.25
539.778,2075.55
539.914,2102.25
540.05,2102.55
540.186,2110.65
540.322,2096.8
540.458,2092.2
540.594,2089.45
540.729,2086.6
540.865,2091.2
541.001,2096.55
541.137,2096.7
541.273,2102.9
541.409,2112.1
541.545,2107.15
541.68,2117.25
541.816,2117.2
541.952,2125.15
542.088,2124.5
542.224,2121.65
542.36,2132.15
542.495,2137.2
542.631,2139.25
542.767,2155.4
542.903,2155.5
543.038,2168.5
543.174,2169.65
543.31,2174.8
543.446,2167.2
543.581,2193.15
543.717,2196.85
543.853,2203.15
543.988,2205.85
544.124,2205.85
544.26,2208.4
544.395,2208.5
544.531,2222.4
544.667,2219.25
544.802,2231.05
544.938,2230.15
545.074,2235.1
545.209,2244.5
545.345,2244.55
545.481,2257.3
545.616,2246.25
545.752,2263.25
545.887,2261.8
546.023,2257.35
546.158,2275.75
546.294,2280.1
546.43,2288.1
546.565,2285.95
546.701,2285.1
546.836,2296.35
546.972,2310.45
547.107,2303.45
547.243,2311.7
547.378,2314.75
547.514,2306.85
547.649,2327.9
547.785,2319.05
547.92,2329.7
548.056,2321.85
548.191,2321.8
548.326,2337.5
548.462,2350.8
548.597,2340.8
548.733,2362.9
548.868,2364.65
549.004,2368.5
549.139,2376.75
549.274,2386.95
549.41,2392.15
549.545,2389.6
549.68,2380.5
549.816,2391.4
549.951,2393.8
550.086,2393.3
550.222,2388.95
550.357,2405.25
550.492,2447.85
550.628,2581.8
550.763,2653.1
550.898,2502.55
551.034,2438.75
551.169,2438.1
551.304,2438.35
551.439,2442.25
551.575,2452.75
551.71,2466.4
551.845,2459.0
551.98,2477.3
552.116,2468.6
552.251,2485.85
552.386,2467.9
552.521,2479.45
552.656,2498.55
552.792,2533.75
552.927,2558.75
553.062,2531.7
553.197,2507.7
553.332,2496.8
553.467,2509.3
553.603,2523.2
553.738,2534.55
553.873,2536.2
554.008,2538.85
554.143,2542.9
554.278,2559.25
554.413,2558.65
554.548,2556.9
554.683,2556.25
554.819,2566.2
554.954,2577.3
555.089,2588.3
555.224,2585.2
555.359,2591.2
555.494,2601.55
555.629,2621.0
555.764,2622.0
555.899,2614.25
556.034,2620.55
556.169,2632.8
556.304,2644.0
556.439,2650.0
556.574,2645.35
556.709,2658.55
556.844,2674.3
556.979,2681.25
557.114,2697.65
557.249,2738.95
557.384,2803.1
557.519,2912.55
557.653,3025.3
557.788,2997.15
557.923,2837.25
558.058,2761.95
558.193,2723.8
558.328,2708.0
558.463,2715.05
558.598,2706.5
558.733,2702.1
558.867,2697.35
559.002,2695.55
559.137,2713.0
559.272,2715.45
559.407,2721.95
559.542,2730.25
559.677,2717.05
559.811,2733.4
559.946,2750.9
560.081,2765.7
560.216,2756.4
560.351,2770.65
560.485,2775.35
560.62,2787.1
560.755,2791.8
560.89,2786.7
561.024,2789.95
561.159,2804.45
561.294,2814.0
561.429,2803.8
561.563,2818.2
561.698,2814.25
561.833,2834.95
561.967,2847.85
562.102,2870.6
562.237,2879.6
562.371,2868.8
562.506,2868.9
562.641,2862.45
562.775,2876.0
562.91,2891.2
563.045,2895.9
563.179,2898.95
563.314,2898.15
563.449,2913.8
563.583,2911.2
563.718,2933.1
563.853,2937.55
563.987,2952.8
564.122,2959.45
564.256,2957.4
564.391,2991.75
564.525,3010.2
564.66,3037.5
564.795,3058.4
564.929,3100.5
565.064,3179.95
565.198,3201.55
565.333,3159.85
565.467,3135.6
565.602,3137.9
565.736,3150.65
565.871,3164.1
566.005,3156.75
566.14,3126.7
566.274,3092.7
566.409,3085.2
566.543,3070.55
566.678,3045.35
566.812,3059.5
566.947,3049.1
567.081,3056.65
567.216,3054.35
567.35,3065.15
567.484,3094.7
567.619,3114.8
567.753,3164.35
567.888,3159.35
568.022,3153.7
568.156,3130.35
568.291,3113.7
568.425,3114.2
568.56,3128.85
568.694,3128.5
568.828,3143.5
568.963,3146.85
569.097,3159.65
569.231,3163.0
569.366,3187.25
569.5,3188.55
569.634,3202.65
569.769,3209.7
569.903,3216.55
570.037,3228.7
570.172,3230.4
570.306,3243.85
570.44,3259.05
570.575,3296.55
570.709,3324.65
570.843,3356.35
570.977,3450.65
571.112,3517.6
571.246,3591.15
571.38,3652.2
571.514,3637.25
571.649,3563.45
571.783,3467.85
571.917,3431.4
572.051,3417.05
572.185,3388.15
572.32,3350.45
572.454,3344.0
572.588,3335.15
572.722,3332.3
572.856,3323.5
572.991,3347.85
573.125,3345.8
573.259,3338.95
573.393,3350.85
573.527,3360.35
573.661,3366.5
573.795,3385.2
573.93,3380.05
574.064,3392.55
574.198,3388.95
574.332,3400.1
574.466,3394.4
574.6,3396.0
574.734,3405.15
574.868,3397.3
575.002,3426.25
575.136,3428.95
575.271,3469.25
575.405,3506.6
575.539,3501.45
575.673,3495.35
575.807,3456.95
575.941,3453.7
576.075,3470.0
576.209,3468.95
576.343,3484.25
576.477,3483.55
576.611,3522.35
576.745,3513.0
576.879,3527.95
577.013,3529.75
577.147,3541.6
577.281,3532.6
577.415,3535.15
577.549,3534.85
577.683,3539.0
577.817,3523.85
577.951,3535.55
578.085,3538.1
578.218,3546.2
578.352,3535.65
578.486,3538.15
578.62,3550.45
578.754,3577.85
578.888,3545.1
579.022,3569.0
579.156,3572.2
579.29,3581.5
579.424,3592.4
579.557,3588.95
579.691,3593.05
579.825,3594.1
579.959,3601.85
580.093,3602.1
580.227,3609.55
580.361,3616.0
580.494,3608.8
580.628,3634.9
580.762,3613.7
580.896,3639.75
581.03,3653.6
581.164,3657.75
581.297,3654.5
581.431,3665.85
581.565,3740.95
581.699,3792.65
581.832,3999.1
581.966,4359.35
582.1,4969.4
582.234,5339.55
582.368,4769.6
582.501,4096.95
582.635,3853.2
582.769,3781.85
582.903,3772.2
583.036,3744.1
583.17,3740.35
583.304,3737.3
583.437,3742.8
583.571,3746.7
583.705,3760.55
583.838,3738.4
583.972,3754.55
584.106,3762.95
584.24,3768.55
584.373,3761.95
584.507,3780.2
584.641,3781.25
584.774,3763.3
584.908,3799.05
585.041,3798.45
585.175,3824.35
585.309,3858.55
585.442,3919.85
585.576,4034.95
585.71,4196.7
585.843,4443.35
585.977,4632.35
586.11,4662.4
586.244,4557.35
586.378,4434.75
586.511,4274.55
586.645,4140.2
586.778,4018.95
586.912,3973.65
587.045,3917.35
587.179,3937.3
587.313,3910.4
587.446,3902.65
587.58,3905.65
587.713,3892.95
587.847,3891.3
587.98,3891.9
588.114,3881.75
588.247,3886.35
588.381,3878.55
588.514,3886.3
588.648,3877.05
588.781,3880.35
588.915,3883.6
589.048,3866.75
589.182,3878.0
589.315,3873.0
589.449,3878.35
589.582,3882.3
589.715,3877.3
589.849,3894.9
589.982,3876.65
590.116,3891.15
590.249,3904.6
590.383,3901.4
590.516,3904.55
590.649,3925.75
590.783,3929.75
590.916,3931.8
591.05,3931.1
591.183,3944.4
591.316,3959.35
591.45,3951.6
591.583,3932.55
591.717,3956.5
591.85,3947.65
591.983,3944.4
592.117,3953.6
592.25,3944.05
592.383,3949.45
592.517,3950.5
592.65,3956.6
592.783,3933.9
592.917,3949.95
593.05,3939.3
593.183,3939.0
593.317,3951.6
593.45,3938.15
593.583,3963.35
593.717,3961.1
593.85,3970.15
593.983,3949.95
594.116,3969.75
594.25,3974.8
594.383,3981.6
594.516,3986.2
594.649,4008.1
594.783,3997.55
594.916,4026.95
595.049,4007.2
595.182,4022.65
595.316,4040.5
595.449,4012.25
595.582,4035.55
595.715,4058.45
595.849,4048.75
595.982,4067.15
596.115,4063.6
596.248,4054.4
596.381,4045.8
596.514,4060.5
596.648,4081.75
596.781,4082.8
596.914,4094.3
597.047,4084.05
597.18,4089.2
597.313,4085.15
597.447,4106.65
597.58,4087.75
597.713,4110.95
597.846,4112.8
597.979,4127.0
598.112,4125.3
598.245,4158.8
598.379,4166.0
598.512,4165.85
598.645,4163.45
598.778,4177.95
598.911,4161.6
599.044,4182.15
599.177,4188.05
599.31,4186.75
599.443,4191.2
599.576,4193.85
599.709,4207.9
599.842,4182.15
599.975,4180.15
600.109,4195.3
600.242,4201.85
600.375,4179.95
600.508,4174.05
600.641,4189.95
600.774,4180.25
600.907,4180.1
601.04,4185.6
601.173,4193.5
601.306,4199.45
601.439,4186.85
601.572,4196.45
601.705,4220.35
601.838,4203.1
601.971,4216.4
602.104,4230.4
602.237,4221.35
602.37,4240.3
602.503,4226.8
602.636,4251.1
602.768,4252.15
602.901,4257.45
603.034,4272.5
603.167,4289.55
603.3,4279.15
603.433,4285.9
603.566,4291.65
603.699,4312.0
603.832,4308.1
603.965,4308.2
604.098,4307.8
604.231,4298.95
604.364,4313.6
604.496,4297.45
604.629,4297.5
604.762,4307.05
604.895,4283.45
605.028,4293.75
605.161,4285.9
605.294,4300.05
605.427,4274.3
605.559,4264.05
605.692,4267.5
605.825,4260.75
605.958,4267.05
606.091,4260.2
606.224,4268.8
606.356,4280.9
606.489,4291.5
606.622,4284.65
606.755,4289.7
606.888,4288.45
607.02,4301.05
607.153,4317.1
607.286,4333.5
607.419,4331.2
607.552,4361.55
607.684,4366.65
607.817,4394.45
607.95,4388.8
608.083,4383.45
608.215,4425.85
608.348,4424.6
608.481,4448.35
608.614,4448.75
608.746,4442.75
608.879,4453.55
609.012,4469.15
609.145,4457.15
609.277,4474.05
609.41,4488.4
609.543,4468.8
609.675,4464.3
609.808,4491.05
609.941,4489.15
610.074,4496.05
610.206,4507.7
610.339,4501.5
610.472,4521.95
610.604,4516.5
610.737,4524.1
610.87,4546.15
611.002,4542.25
611.135,4541.25
611.268,4533.7
611.4,4567.7
611.533,4584.1
611.666,4603.95
611.798,4603.4
611.931,4640.35
612.063,4653.0
612.196,4649.45
612.329,4691.05
612.461,4707.2
612.594,4707.0
612.727,4731.15
612.859,4739.95
612.992,4781.55
613.124,4782.2
613.257,4801.85
613.39,4819.2
613.522,4840.9
613.655,4849.05
613.787,4856.35
613.92,4874.15
614.052,4874.2
614.185,4889.85
614.317,4899.2
614.45,4901.65
614.583,4918.05
614.715,4911.5
614.848,4932.25
614.98,4939.3
615.113,4937.45
615.245,4937.15
615.378,4948.8
615.51,4956.3
615.643,4959.4
615.775,4976.75
615.908,4980.6
616.04,4998.85
616.173,4980.2
616.305,4995.1
616.438,5024.7
616.57,5014.5
616.703,5041.05
616.835,5049.4
616.968,5097.45
617.1,5086.5
617.233,5127.15
617.365,5138.95
617.498,5130.65
617.63,5143.8
617.762,5169.8
617.895,5194.1
618.027,5194.45
618.16,5215.95
618.292,5229.2
618.425,5236.9
618.557,5234.0
618.689,5264.55
618.822,5267.85
618.954,5262.6
619.087,5275.35
619.219,5272.65
619.351,5269.35
619.484,5297.85
619.616,5289.55
619.749,5323.05
619.881,5312.9
620.013,5323.65
620.146,5328.15
620.278,5351.1
620.41,5338.0
620.543,5348.35
620.675,5364.1
620.808,5366.3
620.94,5381.4
621.072,5383.6
621.205,5397.55
621.337,5426.45
621.469,5412.25
621.602,5417.9
621.734,5458.5
621.866,5460.0
621.998,5478.9
622.131,5494.2
622.263,5510.3
622.395,5527.45
622.528,5553.1
622.66,5565.15
622.792,5571.75
622.925,5587.55
623.057,5625.85
623.189,5626.95
623.321,5652.6
623.454,5657.15
623.586,5676.6
623.718,5661.65
623.85,5701.5
623.983,5714.2
624.115,5736.55
624.247,5755.55
624.379,5753.3
624.512,5761.35
624.644,5783.25
624.776,5790.9
624.908,5804.55
625.041,5787.35
625.173,5815.85
625.305,5823.35
625.437,5806.65
625.569,5824.25
625.702,5857.85
625.834,5851.75
625.966,5858.35
626.098,5845.65
626.23,5880.9
626.363,5888.55
626.495,5899.05
626.627,5907.65
626.759,5912.3
626.891,5912.9
627.024,5907.2
627.156,5913.65
627.288,5949.85
627.42,5966.45
627.552,5957.55
627.684,5961.75
627.816,5950.55
627.949,5969.6
628.081,6016.8
628.213,6013.65
628.345,6051.95
628.477,6031.5
628.609,6060.85
628.741,6083.15
628.874,6102.2
629.006,6115.15
629.138,6118.2
629.27,6138.25
629.402,6144.4
629.534,6145.75
629.666,6171.05
629.798,6188.8
629.93,6200.8
630.062,6195.55
630.195,6194.85
630.327,6229.55
630.459,6242.1
630.591,6246.7
630.723,6275.7
630.855,6280.55
630.987,6306.6
631.119,6327.2
631.251,6356.25
631.383,6377.8
631.515,6390.25
631.647,6420.65
631.779,6450.75
631.911,6477.35
632.043,6486.25
632.175,6452.2
632.307,6456.7
632.439,6447.9
632.571,6438.1
632.703,6415.3
632.835,6441.05
632.967,6420.4
633.099,6444.55
633.231,6460.2
633.363,6463.0
633.495,6455.3
633.627,6436.7
633.759,6445.45
633.891,6439.3
634.023,6439.4
634.155,6457.35
634.287,6454.7
634.419,6444.45
634.551,6457.35
634.683,6481.85
634.815,6463.5
634.947,6491.6
635.079,6507.15
635.211,6502.15
635.343,6519.25
635.475,6566.4
635.607,6579.35
635.739,6602.05
635.871,6631.55
636.003,6703.0
636.135,6733.4
636.267,6778.65
636.398,6868.3
636.53,6943.3
636.662,6975.8
636.794,6906.7
636.926,6877.2
637.058,6790.8
637.19,6758.95
637.322,6717.7
637.454,6686.85
637.586,6723.9
637.717,6711.1
637.849,6694.25
637.981,6710.6
638.113,6712.6
638.245,6686.95
638.377,6715.75
638.509,6737.6
638.641,6730.7
638.773,6760.05
638.904,6762.05
639.036,6759.4
639.168,6767.15
639.3,6748.85
639.432,6797.1
639.564,6758.75
639.695,6787.2
639.827,6797.25
639.959,6813.0
640.091,6795.15
640.223,6803.1
640.355,6843.65
640.486,6851.75
640.618,6833.2
640.75,6828.9
640.882,6837.7
641.014,6832.1
641.146,6857.9
641.277,6866.55
641.409,6875.75
641.541,6888.55
641.673,6903.0
641.805,6899.2
641.936,6899.55
642.068,6906.7
642.2,6898.65
642.332,6906.35
642.464,6911.0
642.595,6913.1
642.727,6918.35
642.859,6908.65
642.991,6888.55
643.122,6900.8
643.254,6890.6
643.386,6867.55
643.518,6868.4
643.649,6860.15
643.781,6861.9
643.913,6837.35
644.045,6822.85
644.176,6834.55
644.308,6831.15
644.44,6832.4
644.572,6856.2
644.703,6821.7
644.835,6842.25
644.967,6838.45
645.099,6863.2
645.23,6840.95
645.362,6821.2
645.494,6850.75
645.625,6827.75
645.757,6849.0
645.889,6874.5
646.021,6859.45
646.152,6883.2
646.284,6861.8
646.416,6899.45
646.547,6885.95
646.679,6897.25
646.811,6941.35
646.942,6918.25
647.074,6938.05
647.206,6919.7
647.337,6942.45
647.469,6947.25
647.601,6945.95
647.732,6955.5
647.864,6956.3
647.996,6959.6
648.127,6930.45
648.259,6934.75
648.391,6932.95
648.522,6929.5
648.654,6928.05
648.786,6932.8
648.917,6937.25
649.049,6918.0
649.181,6912.7
649.312,6908.7
649.444,6920.8
649.576,6897.1
649.707,6907.45
649.839,6901.55
649.971,6894.1
650.102,6897.75
650.234,6885.05
650.365,6901.9
650.497,6892.65
650.629,6903.75
650.76,6892.55
650.892,6883.2
651.023,6894.0
651.155,6903.9
651.287,6895.5
651.418,6917.6
651.55,6901.5
651.682,6920.6
651.813,6907.1
651.945,6906.75
652.076,6929.6
652.208,6936.5
652.339,6943.85
652.471,6944.4
652.603,6946.1
652.734,6940.75
652.866,6939.55
652.997,6958.6
653.129,6937.6
653.261,6948.75
653.392,6947.25
653.524,6952.15
653.655,6981.35
653.787,6955.8
653.918,6953.95
654.05,6970.8
654.181,6976.95
654.313,6955.45
654.445,6944.95
654.576,6946.85
654.708,6960.85
654.839,6922.75
654.971,6928.55
655.102,6926.95
655.234,6935.0
655.365,6927.25
655.497,6949.35
655.628,6964.3
655.76,6946.4
655.892,6940.35
656.023,6914.4
656.155,6925.05
656.286,6908.1
656.418,6910.75
656.549,6927.55
656.681,6937.65
656.812,6957.0
656.944,6976.3
657.075,6937.6
657.207,6956.85
657.338,6957.95
657.47,6945.95
657.601,6964.55
657.733,6943.45
657.864,6946.8
657.996,6948.7
658.127,6954.5
658.259,6967.35
658.39,6965.95
658.522,7003.8
658.653,6975.15
658.785,6955.3
658.916,6948.4
659.048,6955.05
659.179,6976.25
659.311,7009.4
659.442,6994.95
659.574,6980.35
659.705,6926.25
659.836,6947.25
659.968,6992.95
660.099,6968.0
660.231,6963.25
660.362,6944.2
660.494,6932.25
660.625,6938.85
660.757,6921.5
660.888,6905.55
661.02,6866.55
661.151,6876.75
661.283,6881.3
661.414,6872.45
661.545,6852.45
661.677,6856.95
661.808,6872.25
661.94,6870.3
662.071,6842.4
662.203,6822.1
662.334,6800.0
662.466,6800.2
662.597,6830.9
662.728,6836.35
662.86,6816.2
662.991,6786.05
663.123,6809.8
