cm-1,A
4000.0,0.0002
3999.0,0.0003
3998.0,0.0003
3997.0,0.0004
3996.0,0.0004
3995.0,0.0004
3994.0,0.0004
3993.0,0.0003
3992.0,0.0003
3991.0,0.0002
3990.0,0.0002
3989.0,0.0001
3988.0,0.0001
3987.0,0.0
3986.0,0.0
3985.0,0.0001
3984.0,0.0001
3983.0,0.0001
3982.0,0.0001
3981.0,0.0001
3980.0,0.0001
3979.0,0.0002
3978.0,0.0003
3977.0,0.0004
3976.0,0.0004
3975.0,0.0005
3974.0,0.0004
3973.0,0.0004
3972.0,0.0003
3971.0,0.0003
3970.0,0.0003
3969.0,0.0003
3968.0,0.0003
3967.0,0.0003
3966.0,0.0003
3965.0,0.0004
3964.0,0.0004
3963.0,0.0005
3962.0,0.0005
3961.0,0.0005
3960.0,0.0005
3959.0,0.0004
3958.0,0.0004
3957.0,0.0004
3956.0,0.0004
3955.0,0.0004
3954.0,0.0004
3953.0,0.0005
3952.0,0.0005
3951.0,0.0006
3950.0,0.0005
3949.0,0.0005
3948.0,0.0004
3947.0,0.0004
3946.0,0.0005
3945.0,0.0005
3944.0,0.0005
3943.0,0.0005
3942.0,0.0004
3941.0,0.0003
3940.0,0.0003
3939.0,0.0004
3938.0,0.0005
3937.0,0.0005
3936.0,0.0005
3935.0,0.0005
3934.0,0.0004
3933.0,0.0004
3932.0,0.0005
3931.0,0.0005
3930.0,0.0005
3929.0,0.0005
3928.0,0.0005
3927.0,0.0005
3926.0,0.0005
3925.0,0.0005
3924.0,0.0005
3923.0,0.0006
3922.0,0.0006
3921.0,0.0006
3920.0,0.0005
3919.0,0.0003
3918.0,0.0002
3917.0,0.0002
3916.0,0.0003
3915.0,0.0004
3914.0,0.0005
3913.0,0.0006
3912.0,0.0006
3911.0,0.0007
3910.0,0.0006
3909.0,0.0006
3908.0,0.0005
3907.0,0.0004
3906.0,0.0003
3905.0,0.0002
3904.0,0.0002
3903.0,0.0002
3902.0,0.0002
3901.0,0.0003
3900.0,0.0003
3899.0,0.0003
3898.0,0.0004
3897.0,0.0004
3896.0,0.0004
3895.0,0.0004
3894.0,0.0004
3893.0,0.0004
3892.0,0.0005
3891.0,0.0005
3890.0,0.0005
3889.0,0.0005
3888.0,0.0004
3887.0,0.0003
3886.0,0.0002
3885.0,0.0003
3884.0,0.0004
3883.0,0.0005
3882.0,0.0006
3881.0,0.0006
3880.0,0.0006
3879.0,0.0005
3878.0,0.0004
3877.0,0.0003
3876.0,0.0003
3875.0,0.0004
3874.0,0.0005
3873.0,0.0005
3872.0,0.0005
3871.0,0.0005
3870.0,0.0004
3869.0,0.0004
3868.0,0.0005
3867.0,0.0006
3866.0,0.0007
3865.0,0.0007
3864.0,0.0007
3863.0,0.0006
3862.0,0.0005
3861.0,0.0003
3860.0,0.0003
3859.0,0.0003
3858.0,0.0004
3857.0,0.0005
3856.0,0.0005
3855.0,0.0005
3854.0,0.0005
3853.0,0.0005
3852.0,0.0005
3851.0,0.0006
3850.0,0.0006
3849.0,0.0006
3848.0,0.0006
3847.0,0.0006
3846.0,0.0006
3845.0,0.0005
3844.0,0.0004
3843.0,0.0003
3842.0,0.0002
3841.0,0.0002
3840.0,0.0002
3839.0,0.0003
3838.0,0.0004
3837.0,0.0004
3836.0,0.0004
3835.0,0.0004
3834.0,0.0004
3833.0,0.0005
3832.0,0.0005
3831.0,0.0005
3830.0,0.0005
3829.0,0.0005
3828.0,0.0005
3827.0,0.0006
3826.0,0.0007
3825.0,0.0007
3824.0,0.0006
3823.0,0.0005
3822.0,0.0005
3821.0,0.0006
3820.0,0.0006
3819.0,0.0007
3818.0,0.0006
3817.0,0.0006
3816.0,0.0005
3815.0,0.0006
3814.0,0.0006
3813.0,0.0006
3812.0,0.0005
3811.0,0.0003
3810.0,0.0002
3809.0,0.0001
3808.0,0.0002
3807.0,0.0003
3806.0,0.0005
3805.0,0.0006
3804.0,0.0006
3803.0,0.0007
3802.0,0.0008
3801.0,0.0008
3800.0,0.0008
3799.0,0.0006
3798.0,0.0005
3797.0,0.0004
3796.0,0.0004
3795.0,0.0004
3794.0,0.0005
3793.0,0.0005
3792.0,0.0005
3791.0,0.0004
3790.0,0.0003
3789.0,0.0003
3788.0,0.0003
3787.0,0.0004
3786.0,0.0005
3785.0,0.0006
3784.0,0.0006
3783.0,0.0006
3782.0,0.0006
3781.0,0.0006
3780.0,0.0006
3779.0,0.0005
3778.0,0.0005
3777.0,0.0005
3776.0,0.0005
3775.0,0.0005
3774.0,0.0006
3773.0,0.0006
3772.0,0.0007
3771.0,0.0008
3770.0,0.0008
3769.0,0.0008
3768.0,0.0007
3767.0,0.0007
3766.0,0.0006
3765.0,0.0006
3764.0,0.0007
3763.0,0.0007
3762.0,0.0008
3761.0,0.0007
3760.0,0.0007
3759.0,0.0007
3758.0,0.0007
3757.0,0.0007
3756.0,0.0007
3755.0,0.0007
3754.0,0.0007
3753.0,0.0007
3752.0,0.0008
3751.0,0.0007
3750.0,0.0007
3749.0,0.0006
3748.0,0.0007
3747.0,0.0007
3746.0,0.0007
3745.0,0.0007
3744.0,0.0007
3743.0,0.0008
3742.0,0.0009
3741.0,0.0009
3740.0,0.0009
3739.0,0.0009
3738.0,0.0009
3737.0,0.001
3736.0,0.0011
3735.0,0.0011
3734.0,0.001
3733.0,0.0008
3732.0,0.0007
3731.0,0.0006
3730.0,0.0005
3729.0,0.0005
3728.0,0.0004
3727.0,0.0003
3726.0,0.0003
3725.0,0.0003
3724.0,0.0003
3723.0,0.0004
3722.0,0.0006
3721.0,0.0007
3720.0,0.0007
3719.0,0.0007
3718.0,0.0007
3717.0,0.0007
3716.0,0.0007
3715.0,0.0006
3714.0,0.0007
3713.0,0.0008
3712.0,0.001
3711.0,0.0011
3710.0,0.001
3709.0,0.0008
3708.0,0.0007
3707.0,0.0007
3706.0,0.0006
3705.0,0.0005
3704.0,0.0004
3703.0,0.0003
3702.0,0.0003
3701.0,0.0004
3700.0,0.0005
3699.0,0.0005
3698.0,0.0006
3697.0,0.0006
3696.0,0.0007
3695.0,0.0007
3694.0,0.0007
3693.0,0.0007
3692.0,0.0007
3691.0,0.0007
3690.0,0.0007
3689.0,0.0007
3688.0,0.0007
3687.0,0.0007
3686.0,0.0008
3685.0,0.0008
3684.0,0.0009
3683.0,0.001
3682.0,0.0011
3681.0,0.0012
3680.0,0.0012
3679.0,0.0011
3678.0,0.001
3677.0,0.0009
3676.0,0.001
3675.0,0.0009
3674.0,0.0009
3673.0,0.0008
3672.0,0.0007
3671.0,0.0007
3670.0,0.0008
3669.0,0.0009
3668.0,0.001
3667.0,0.0011
3666.0,0.0011
3665.0,0.001
3664.0,0.0009
3663.0,0.0008
3662.0,0.0008
3661.0,0.0008
3660.0,0.0008
3659.0,0.0008
3658.0,0.0008
3657.0,0.0009
3656.0,0.0009
3655.0,0.001
3654.0,0.0011
3653.0,0.0011
3652.0,0.0011
3651.0,0.0012
3650.0,0.0013
3649.0,0.0013
3648.0,0.0013
3647.0,0.0013
3646.0,0.0014
3645.0,0.0014
3644.0,0.0015
3643.0,0.0015
3642.0,0.0014
3641.0,0.0014
3640.0,0.0014
3639.0,0.0014
3638.0,0.0014
3637.0,0.0015
3636.0,0.0015
3635.0,0.0015
3634.0,0.0015
3633.0,0.0015
3632.0,0.0015
3631.0,0.0015
3630.0,0.0016
3629.0,0.0018
3628.0,0.002
3627.0,0.002
3626.0,0.0021
3625.0,0.0021
3624.0,0.002
3623.0,0.0018
3622.0,0.0016
3621.0,0.0014
3620.0,0.0014
3619.0,0.0016
3618.0,0.0018
3617.0,0.002
3616.0,0.0021
3615.0,0.0021
3614.0,0.0022
3613.0,0.0022
3612.0,0.0022
3611.0,0.0022
3610.0,0.0023
3609.0,0.0023
3608.0,0.0024
3607.0,0.0024
3606.0,0.0023
3605.0,0.0023
3604.0,0.0023
3603.0,0.0024
3602.0,0.0025
3601.0,0.0025
3600.0,0.0026
3599.0,0.0027
3598.0,0.0026
3597.0,0.0026
3596.0,0.0027
3595.0,0.0027
3594.0,0.0028
3593.0,0.0028
3592.0,0.0028
3591.0,0.0028
3590.0,0.0027
3589.0,0.0027
3588.0,0.0027
3587.0,0.0027
3586.0,0.0027
3585.0,0.0028
3584.0,0.0029
3583.0,0.003
3582.0,0.003
3581.0,0.0031
3580.0,0.0032
3579.0,0.0033
3578.0,0.0034
3577.0,0.0035
3576.0,0.0035
3575.0,0.0035
3574.0,0.0035
3573.0,0.0035
3572.0,0.0035
3571.0,0.0036
3570.0,0.0038
3569.0,0.004
3568.0,0.0043
3567.0,0.0045
3566.0,0.0046
3565.0,0.0046
3564.0,0.0045
3563.0,0.0043
3562.0,0.0043
3561.0,0.0043
3560.0,0.0044
3559.0,0.0046
3558.0,0.0047
3557.0,0.0047
3556.0,0.0047
3555.0,0.0047
3554.0,0.0048
3553.0,0.0049
3552.0,0.0051
3551.0,0.0051
3550.0,0.0052
3549.0,0.0052
3548.0,0.0052
3547.0,0.0053
3546.0,0.0053
3545.0,0.0053
3544.0,0.0053
3543.0,0.0054
3542.0,0.0054
3541.0,0.0055
3540.0,0.0056
3539.0,0.0056
3538.0,0.0057
3537.0,0.0057
3536.0,0.0058
3535.0,0.0059
3534.0,0.006
3533.0,0.0061
3532.0,0.0062
3531.0,0.0063
3530.0,0.0064
3529.0,0.0065
3528.0,0.0066
3527.0,0.0066
3526.0,0.0066
3525.0,0.0066
3524.0,0.0065
3523.0,0.0065
3522.0,0.0065
3521.0,0.0066
3520.0,0.0066
3519.0,0.0067
3518.0,0.0067
3517.0,0.0068
3516.0,0.0068
3515.0,0.0069
3514.0,0.007
3513.0,0.0071
3512.0,0.0071
3511.0,0.0072
3510.0,0.0073
3509.0,0.0073
3508.0,0.0073
3507.0,0.0073
3506.0,0.0073
3505.0,0.0074
3504.0,0.0075
3503.0,0.0076
3502.0,0.0076
3501.0,0.0076
3500.0,0.0076
3499.0,0.0075
3498.0,0.0074
3497.0,0.0073
3496.0,0.0072
3495.0,0.0072
3494.0,0.0071
3493.0,0.0072
3492.0,0.0072
3491.0,0.0073
3490.0,0.0075
3489.0,0.0076
3488.0,0.0076
3487.0,0.0075
3486.0,0.0074
3485.0,0.0074
3484.0,0.0074
3483.0,0.0074
3482.0,0.0075
3481.0,0.0075
3480.0,0.0075
3479.0,0.0074
3478.0,0.0074
3477.0,0.0074
3476.0,0.0074
3475.0,0.0074
3474.0,0.0073
3473.0,0.0072
3472.0,0.007
3471.0,0.0069
3470.0,0.0069
3469.0,0.0069
3468.0,0.007
3467.0,0.0069
3466.0,0.0068
3465.0,0.0067
3464.0,0.0066
3463.0,0.0066
3462.0,0.0066
3461.0,0.0066
3460.0,0.0066
3459.0,0.0065
3458.0,0.0064
3457.0,0.0063
3456.0,0.0063
3455.0,0.0062
3454.0,0.0062
3453.0,0.0062
3452.0,0.0063
3451.0,0.0064
3450.0,0.0065
3449.0,0.0066
3448.0,0.0066
3447.0,0.0065
3446.0,0.0065
3445.0,0.0065
3444.0,0.0066
3443.0,0.0066
3442.0,0.0067
3441.0,0.0067
3440.0,0.0067
3439.0,0.0066
3438.0,0.0066
3437.0,0.0067
3436.0,0.0067
3435.0,0.0067
3434.0,0.0067
3433.0,0.0068
3432.0,0.0068
3431.0,0.0069
3430.0,0.007
3429.0,0.0071
3428.0,0.0072
3427.0,0.0072
3426.0,0.0073
3425.0,0.0074
3424.0,0.0076
3423.0,0.0076
3422.0,0.0076
3421.0,0.0076
3420.0,0.0077
3419.0,0.0078
3418.0,0.008
3417.0,0.008
3416.0,0.0081
3415.0,0.0082
3414.0,0.0083
3413.0,0.0084
3412.0,0.0086
3411.0,0.0086
3410.0,0.0086
3409.0,0.0086
3408.0,0.0087
3407.0,0.0089
3406.0,0.009
3405.0,0.0092
3404.0,0.0094
3403.0,0.0094
3402.0,0.0095
3401.0,0.0096
3400.0,0.0096
3399.0,0.0096
3398.0,0.0096
3397.0,0.0095
3396.0,0.0095
3395.0,0.0094
3394.0,0.0094
3393.0,0.0094
3392.0,0.0094
3391.0,0.0093
3390.0,0.0091
3389.0,0.0088
3388.0,0.0085
3387.0,0.0083
3386.0,0.0081
3385.0,0.008
3384.0,0.0079
3383.0,0.0078
3382.0,0.0078
3381.0,0.0078
3380.0,0.0077
3379.0,0.0076
3378.0,0.0076
3377.0,0.0075
3376.0,0.0074
3375.0,0.0073
3374.0,0.0072
3373.0,0.007
3372.0,0.0069
3371.0,0.0067
3370.0,0.0066
3369.0,0.0065
3368.0,0.0064
3367.0,0.0064
3366.0,0.0063
3365.0,0.0063
3364.0,0.0062
3363.0,0.0061
3362.0,0.0061
3361.0,0.006
3360.0,0.006
3359.0,0.0059
3358.0,0.0059
3357.0,0.0058
3356.0,0.0058
3355.0,0.0058
3354.0,0.0058
3353.0,0.0059
3352.0,0.0059
3351.0,0.0058
3350.0,0.0057
3349.0,0.0056
3348.0,0.0055
3347.0,0.0056
3346.0,0.0057
3345.0,0.0057
3344.0,0.0057
3343.0,0.0055
3342.0,0.0054
3341.0,0.0052
3340.0,0.0052
3339.0,0.0052
3338.0,0.0052
3337.0,0.0053
3336.0,0.0053
3335.0,0.0053
3334.0,0.0052
3333.0,0.0051
3332.0,0.0051
3331.0,0.005
3330.0,0.005
3329.0,0.005
3328.0,0.0051
3327.0,0.0051
3326.0,0.0051
3325.0,0.0051
3324.0,0.0051
3323.0,0.0051
3322.0,0.0051
3321.0,0.0051
3320.0,0.005
3319.0,0.0049
3318.0,0.0049
3317.0,0.0048
3316.0,0.0048
3315.0,0.0047
3314.0,0.0047
3313.0,0.0047
3312.0,0.0047
3311.0,0.0048
3310.0,0.0048
3309.0,0.0048
3308.0,0.0048
3307.0,0.0048
3306.0,0.0049
3305.0,0.0049
3304.0,0.0049
3303.0,0.0047
3302.0,0.0045
3301.0,0.0043
3300.0,0.0042
3299.0,0.0041
3298.0,0.0042
3297.0,0.0043
3296.0,0.0044
3295.0,0.0044
3294.0,0.0043
3293.0,0.0043
3292.0,0.0044
3291.0,0.0044
3290.0,0.0045
3289.0,0.0045
3288.0,0.0045
3287.0,0.0045
3286.0,0.0045
3285.0,0.0044
3284.0,0.0044
3283.0,0.0044
3282.0,0.0043
3281.0,0.0043
3280.0,0.0042
3279.0,0.0042
3278.0,0.0042
3277.0,0.0042
3276.0,0.0042
3275.0,0.0042
3274.0,0.0041
3273.0,0.0041
3272.0,0.004
3271.0,0.004
3270.0,0.0039
3269.0,0.0039
3268.0,0.0039
3267.0,0.004
3266.0,0.0041
3265.0,0.0041
3264.0,0.0041
3263.0,0.0041
3262.0,0.0041
3261.0,0.004
3260.0,0.0039
3259.0,0.0039
3258.0,0.0039
3257.0,0.0038
3256.0,0.0038
3255.0,0.0038
3254.0,0.0039
3253.0,0.0039
3252.0,0.0039
3251.0,0.0039
3250.0,0.004
3249.0,0.004
3248.0,0.004
3247.0,0.004
3246.0,0.0039
3245.0,0.0039
3244.0,0.0039
3243.0,0.004
3242.0,0.004
3241.0,0.0039
3240.0,0.0038
3239.0,0.0038
3238.0,0.0038
3237.0,0.0039
3236.0,0.0039
3235.0,0.0038
3234.0,0.0037
3233.0,0.0035
3232.0,0.0034
3231.0,0.0033
3230.0,0.0033
3229.0,0.0034
3228.0,0.0035
3227.0,0.0036
3226.0,0.0036
3225.0,0.0036
3224.0,0.0036
3223.0,0.0035
3222.0,0.0034
3221.0,0.0033
3220.0,0.0032
3219.0,0.0031
3218.0,0.0031
3217.0,0.0031
3216.0,0.0032
3215.0,0.0033
3214.0,0.0033
3213.0,0.0033
3212.0,0.0033
3211.0,0.0033
3210.0,0.0032
3209.0,0.0031
3208.0,0.003
3207.0,0.003
3206.0,0.003
3205.0,0.003
3204.0,0.003
3203.0,0.003
3202.0,0.0031
3201.0,0.0032
3200.0,0.0033
3199.0,0.0034
3198.0,0.0034
3197.0,0.0033
3196.0,0.0032
3195.0,0.0031
3194.0,0.003
3193.0,0.0029
3192.0,0.0028
3191.0,0.0028
3190.0,0.0027
3189.0,0.0027
3188.0,0.0027
3187.0,0.0028
3186.0,0.0029
3185.0,0.003
3184.0,0.0031
3183.0,0.0031
3182.0,0.0031
3181.0,0.003
3180.0,0.0029
3179.0,0.0029
3178.0,0.0028
3177.0,0.0028
3176.0,0.0027
3175.0,0.0027
3174.0,0.0026
3173.0,0.0026
3172.0,0.0026
3171.0,0.0026
3170.0,0.0027
3169.0,0.0027
3168.0,0.0027
3167.0,0.0026
3166.0,0.0025
3165.0,0.0024
3164.0,0.0023
3163.0,0.0023
3162.0,0.0023
3161.0,0.0023
3160.0,0.0024
3159.0,0.0025
3158.0,0.0025
3157.0,0.0024
3156.0,0.0023
3155.0,0.0023
3154.0,0.0023
3153.0,0.0024
3152.0,0.0024
3151.0,0.0024
3150.0,0.0023
3149.0,0.0022
3148.0,0.0022
3147.0,0.0023
3146.0,0.0023
3145.0,0.0022
3144.0,0.0022
3143.0,0.0021
3142.0,0.0022
3141.0,0.0023
3140.0,0.0024
3139.0,0.0023
3138.0,0.0023
3137.0,0.0022
3136.0,0.0021
3135.0,0.0022
3134.0,0.0022
3133.0,0.0022
3132.0,0.0021
3131.0,0.0021
3130.0,0.002
3129.0,0.002
3128.0,0.002
3127.0,0.0019
3126.0,0.0019
3125.0,0.0019
3124.0,0.002
3123.0,0.0021
3122.0,0.0021
3121.0,0.0021
3120.0,0.002
3119.0,0.002
3118.0,0.0021
3117.0,0.0021
3116.0,0.0021
3115.0,0.0021
3114.0,0.0021
3113.0,0.0021
3112.0,0.0021
3111.0,0.002
3110.0,0.0019
3109.0,0.0018
3108.0,0.0019
3107.0,0.0019
3106.0,0.002
3105.0,0.002
3104.0,0.002
3103.0,0.002
3102.0,0.002
3101.0,0.0019
3100.0,0.0019
3099.0,0.0019
3098.0,0.0018
3097.0,0.0018
3096.0,0.0018
3095.0,0.0017
3094.0,0.0017
3093.0,0.0017
3092.0,0.0017
3091.0,0.0017
3090.0,0.0016
3089.0,0.0016
3088.0,0.0015
3087.0,0.0015
3086.0,0.0014
3085.0,0.0014
3084.0,0.0014
3083.0,0.0014
3082.0,0.0014
3081.0,0.0015
3080.0,0.0014
3079.0,0.0014
3078.0,0.0014
3077.0,0.0015
3076.0,0.0015
3075.0,0.0015
3074.0,0.0016
3073.0,0.0016
3072.0,0.0016
3071.0,0.0016
3070.0,0.0016
3069.0,0.0016
3068.0,0.0015
3067.0,0.0015
3066.0,0.0015
3065.0,0.0014
3064.0,0.0014
3063.0,0.0014
3062.0,0.0014
3061.0,0.0013
3060.0,0.0013
3059.0,0.0013
3058.0,0.0012
3057.0,0.0012
3056.0,0.0012
3055.0,0.0013
3054.0,0.0013
3053.0,0.0014
3052.0,0.0014
3051.0,0.0013
3050.0,0.0013
3049.0,0.0012
3048.0,0.0011
3047.0,0.0011
3046.0,0.0011
3045.0,0.0011
3044.0,0.0011
3043.0,0.0012
3042.0,0.0012
3041.0,0.0013
3040.0,0.0013
3039.0,0.0012
3038.0,0.0012
3037.0,0.0012
3036.0,0.0012
3035.0,0.0012
3034.0,0.0011
3033.0,0.0011
3032.0,0.001
3031.0,0.001
3030.0,0.0009
3029.0,0.001
3028.0,0.001
3027.0,0.001
3026.0,0.0009
3025.0,0.0009
3024.0,0.0008
3023.0,0.0007
3022.0,0.0006
3021.0,0.0006
3020.0,0.0006
3019.0,0.0007
3018.0,0.0008
3017.0,0.0009
3016.0,0.001
3015.0,0.0011
3014.0,0.0012
3013.0,0.0012
3012.0,0.0012
3011.0,0.0011
3010.0,0.0009
3009.0,0.0008
3008.0,0.0007
3007.0,0.0007
3006.0,0.0008
3005.0,0.0009
3004.0,0.0009
3003.0,0.0009
3002.0,0.0009
3001.0,0.0008
3000.0,0.0008
2999.0,0.0008
2998.0,0.0007
2997.0,0.0007
2996.0,0.0006
2995.0,0.0006
2994.0,0.0006
2993.0,0.0006
2992.0,0.0006
2991.0,0.0006
2990.0,0.0007
2989.0,0.0007
2988.0,0.0008
2987.0,0.0009
2986.0,0.001
2985.0,0.0011
2984.0,0.0012
2983.0,0.0013
2982.0,0.0014
2981.0,0.0015
2980.0,0.0017
2979.0,0.0018
2978.0,0.002
2977.0,0.0021
2976.0,0.0023
2975.0,0.0025
2974.0,0.0028
2973.0,0.0032
2972.0,0.0038
2971.0,0.0043
2970.0,0.0049
2969.0,0.0055
2968.0,0.0061
2967.0,0.0066
2966.0,0.0072
2965.0,0.0078
2964.0,0.0084
2963.0,0.0091
2962.0,0.0096
2961.0,0.01
2960.0,0.0104
2959.0,0.0108
2958.0,0.0111
2957.0,0.0115
2956.0,0.012
2955.0,0.0125
2954.0,0.013
2953.0,0.0136
2952.0,0.0141
2951.0,0.0146
2950.0,0.0149
2949.0,0.015
2948.0,0.0147
2947.0,0.0141
2946.0,0.0133
2945.0,0.0122
2944.0,0.0112
2943.0,0.0104
2942.0,0.0096
2941.0,0.0091
2940.0,0.0088
2939.0,0.0085
2938.0,0.0084
2937.0,0.0084
2936.0,0.0085
2935.0,0.0088
2934.0,0.0093
2933.0,0.0098
2932.0,0.0105
2931.0,0.0112
2930.0,0.012
2929.0,0.0127
2928.0,0.0135
2927.0,0.0142
2926.0,0.015
2925.0,0.0157
2924.0,0.0165
2923.0,0.0172
2922.0,0.0179
2921.0,0.0185
2920.0,0.0192
2919.0,0.0197
2918.0,0.02
2917.0,0.0201
2916.0,0.02
2915.0,0.0197
2914.0,0.0191
2913.0,0.0185
2912.0,0.0179
2911.0,0.0174
2910.0,0.0168
2909.0,0.0163
2908.0,0.0159
2907.0,0.0155
2906.0,0.0152
2905.0,0.0149
2904.0,0.0146
2903.0,0.0141
2902.0,0.0136
2901.0,0.0131
2900.0,0.0126
2899.0,0.0122
2898.0,0.0118
2897.0,0.0114
2896.0,0.0111
2895.0,0.0108
2894.0,0.0106
2893.0,0.0105
2892.0,0.0104
2891.0,0.0102
2890.0,0.0101
2889.0,0.01
2888.0,0.0099
2887.0,0.0099
2886.0,0.01
2885.0,0.0101
2884.0,0.0102
2883.0,0.0104
2882.0,0.0106
2881.0,0.0108
2880.0,0.011
2879.0,0.0111
2878.0,0.0112
2877.0,0.0113
2876.0,0.0113
2875.0,0.0114
2874.0,0.0114
2873.0,0.0114
2872.0,0.0115
2871.0,0.0117
2870.0,0.0119
2869.0,0.0121
2868.0,0.0123
2867.0,0.0123
2866.0,0.0122
2865.0,0.0119
2864.0,0.0114
2863.0,0.0108
2862.0,0.0102
2861.0,0.0096
2860.0,0.009
2859.0,0.0086
2858.0,0.0082
2857.0,0.0079
2856.0,0.0076
2855.0,0.0074
2854.0,0.0073
2853.0,0.0072
2852.0,0.0072
2851.0,0.0072
2850.0,0.0072
2849.0,0.0073
2848.0,0.0075
2847.0,0.0077
2846.0,0.0081
2845.0,0.0085
2844.0,0.0091
2843.0,0.0096
2842.0,0.0102
2841.0,0.0107
2840.0,0.0112
2839.0,0.0116
2838.0,0.0117
2837.0,0.0117
2836.0,0.0115
2835.0,0.011
2834.0,0.0105
2833.0,0.0098
2832.0,0.0093
2831.0,0.0087
2830.0,0.0082
2829.0,0.0078
2828.0,0.0074
2827.0,0.0071
2826.0,0.0068
2825.0,0.0066
2824.0,0.0064
2823.0,0.0062
2822.0,0.006
2821.0,0.0058
2820.0,0.0057
2819.0,0.0056
2818.0,0.0055
2817.0,0.0055
2816.0,0.0054
2815.0,0.0054
2814.0,0.0053
2813.0,0.0053
2812.0,0.0052
2811.0,0.0051
2810.0,0.005
2809.0,0.005
2808.0,0.0049
2807.0,0.0047
2806.0,0.0047
2805.0,0.0046
2804.0,0.0046
2803.0,0.0046
2802.0,0.0045
2801.0,0.0044
2800.0,0.0043
2799.0,0.0043
2798.0,0.0043
2797.0,0.0043
2796.0,0.0043
2795.0,0.0043
2794.0,0.0043
2793.0,0.0042
2792.0,0.0042
2791.0,0.0042
2790.0,0.0042
2789.0,0.0042
2788.0,0.0041
2787.0,0.0041
2786.0,0.0041
2785.0,0.0041
2784.0,0.0041
2783.0,0.0041
2782.0,0.004
2781.0,0.0039
2780.0,0.0038
2779.0,0.0038
2778.0,0.0038
2777.0,0.0038
2776.0,0.0037
2775.0,0.0037
2774.0,0.0036
2773.0,0.0036
2772.0,0.0036
2771.0,0.0036
2770.0,0.0035
2769.0,0.0035
2768.0,0.0035
2767.0,0.0035
2766.0,0.0035
2765.0,0.0034
2764.0,0.0034
2763.0,0.0034
2762.0,0.0033
2761.0,0.0033
2760.0,0.0034
2759.0,0.0034
2758.0,0.0034
2757.0,0.0034
2756.0,0.0034
2755.0,0.0033
2754.0,0.0033
2753.0,0.0033
2752.0,0.0033
2751.0,0.0033
2750.0,0.0034
2749.0,0.0034
2748.0,0.0034
2747.0,0.0034
2746.0,0.0034
2745.0,0.0034
2744.0,0.0034
2743.0,0.0033
2742.0,0.0033
2741.0,0.0033
2740.0,0.0034
2739.0,0.0035
2738.0,0.0035
2737.0,0.0035
2736.0,0.0034
2735.0,0.0034
2734.0,0.0034
2733.0,0.0034
2732.0,0.0034
2731.0,0.0034
2730.0,0.0034
2729.0,0.0034
2728.0,0.0034
2727.0,0.0034
2726.0,0.0034
2725.0,0.0035
2724.0,0.0035
2723.0,0.0035
2722.0,0.0035
2721.0,0.0035
2720.0,0.0035
2719.0,0.0035
2718.0,0.0034
2717.0,0.0035
2716.0,0.0035
2715.0,0.0035
2714.0,0.0035
2713.0,0.0035
2712.0,0.0034
2711.0,0.0033
2710.0,0.0033
2709.0,0.0032
2708.0,0.0032
2707.0,0.0032
2706.0,0.0032
2705.0,0.0032
2704.0,0.0031
2703.0,0.0031
2702.0,0.0031
2701.0,0.0031
2700.0,0.0032
2699.0,0.0032
2698.0,0.0032
2697.0,0.0032
2696.0,0.0032
2695.0,0.0032
2694.0,0.0032
2693.0,0.0032
2692.0,0.0031
2691.0,0.0031
2690.0,0.003
2689.0,0.003
2688.0,0.003
2687.0,0.003
2686.0,0.003
2685.0,0.003
2684.0,0.003
2683.0,0.003
2682.0,0.0029
2681.0,0.0029
2680.0,0.0029
2679.0,0.0029
2678.0,0.0029
2677.0,0.003
2676.0,0.003
2675.0,0.0031
2674.0,0.0031
2673.0,0.0031
2672.0,0.0031
2671.0,0.0031
2670.0,0.0031
2669.0,0.0031
2668.0,0.0031
2667.0,0.0031
2666.0,0.003
2665.0,0.003
2664.0,0.003
2663.0,0.003
2662.0,0.003
2661.0,0.003
2660.0,0.0029
2659.0,0.0029
2658.0,0.0029
2657.0,0.0028
2656.0,0.0028
2655.0,0.0028
2654.0,0.0028
2653.0,0.0028
2652.0,0.0028
2651.0,0.0029
2650.0,0.0029
2649.0,0.0029
2648.0,0.0029
2647.0,0.0029
2646.0,0.0028
2645.0,0.0028
2644.0,0.0028
2643.0,0.0028
2642.0,0.0028
2641.0,0.0028
2640.0,0.0027
2639.0,0.0027
2638.0,0.0027
2637.0,0.0027
2636.0,0.0026
2635.0,0.0026
2634.0,0.0026
2633.0,0.0027
2632.0,0.0027
2631.0,0.0028
2630.0,0.0028
2629.0,0.0028
2628.0,0.0028
2627.0,0.0028
2626.0,0.0028
2625.0,0.0028
2624.0,0.0028
2623.0,0.0028
2622.0,0.0028
2621.0,0.0028
2620.0,0.0028
2619.0,0.0028
2618.0,0.0028
2617.0,0.0028
2616.0,0.0029
2615.0,0.0029
2614.0,0.0029
2613.0,0.0029
2612.0,0.0029
2611.0,0.0028
2610.0,0.0027
2609.0,0.0027
2608.0,0.0027
2607.0,0.0027
2606.0,0.0027
2605.0,0.0027
2604.0,0.0026
2603.0,0.0026
2602.0,0.0027
2601.0,0.0027
2600.0,0.0028
2599.0,0.0028
2598.0,0.0027
2597.0,0.0027
2596.0,0.0026
2595.0,0.0026
2594.0,0.0026
2593.0,0.0027
2592.0,0.0027
2591.0,0.0028
2590.0,0.0028
2589.0,0.0029
2588.0,0.0029
2587.0,0.0029
2586.0,0.0029
2585.0,0.0029
2584.0,0.0029
2583.0,0.0029
2582.0,0.0029
2581.0,0.0029
2580.0,0.0028
2579.0,0.0028
2578.0,0.0028
2577.0,0.0027
2576.0,0.0027
2575.0,0.0027
2574.0,0.0028
2573.0,0.0028
2572.0,0.0027
2571.0,0.0027
2570.0,0.0027
2569.0,0.0027
2568.0,0.0027
2567.0,0.0027
2566.0,0.0027
2565.0,0.0027
