nm,Intensity
791.588,4957.8
791.862,4928.08
792.136,4925.94
792.411,4915.34
792.685,4899.74
792.959,4922.38
793.233,4912.02
793.507,4889.8
793.781,4901.82
794.056,4894.84
794.33,4901.32
794.604,4891.46
794.878,4909.48
795.152,4900.86
795.426,4883.94
795.701,4880.74
795.975,4892.3
796.249,4876.56
796.523,4879.56
796.797,4884.42
797.071,4895.42
797.345,4908.72
797.619,4905.24
797.894,4882.52
798.168,4896.18
798.442,4879.02
798.716,4882.1
798.99,4903.12
799.264,4911.28
799.538,4886.24
799.812,4890.6
800.086,4883.92
800.36,4874.62
800.634,4875.98
800.908,4877.42
801.182,4883.44
801.456,4873.48
801.73,4854.74
802.004,4875.5
802.278,4862.7
802.552,4858.02
802.826,4869.2
803.1,4890.4
803.374,4877.82
803.648,4865.18
803.922,4854.32
804.196,4850.44
804.47,4848.56
804.744,4842.8
805.018,4861.44
805.292,4842.6
805.566,4858.1
805.84,4869.14
806.114,4877.82
806.388,4867.74
806.662,4865.82
806.936,4868.1
807.209,4851.4
807.483,4850.46
807.757,4847.14
808.031,4832.4
808.305,4836.0
808.579,4846.94
808.853,4834.0
809.127,4843.78
809.4,4852.84
809.674,4820.22
809.948,4814.6
810.222,4811.16
810.496,4821.76
810.77,4815.14
811.043,4797.92
811.317,4805.46
811.591,4804.32
811.865,4808.34
812.139,4812.74
812.412,4818.7
812.686,4818.26
812.96,4814.72
813.234,4803.92
813.507,4811.1
813.781,4794.44
814.055,4780.4
814.329,4770.6
814.602,4786.74
814.876,4776.2
815.15,4776.88
815.424,4766.0
815.697,4763.68
815.971,4760.58
816.245,4750.14
816.518,4750.6
816.792,4746.16
817.066,4748.3
817.34,4751.6
817.613,4739.74
817.887,4739.54
818.161,4731.9
818.434,4726.7
818.708,4737.42
818.981,4746.04
819.255,4731.02
819.529,4720.4
819.802,4717.06
820.076,4732.14
820.35,4738.7
820.623,4744.92
820.897,4733.1
821.17,4725.9
821.444,4728.24
821.718,4731.9
821.991,4703.18
822.265,4706.16
822.538,4698.34
822.812,4675.72
823.085,4688.36
823.359,4706.5
823.632,4715.66
823.906,4704.6
824.18,4704.14
824.453,4715.64
824.727,4717.98
825.0,4702.32
825.274,4701.38
825.547,4682.18
825.821,4687.26
826.094,4694.38
826.367,4698.7
826.641,4693.32
826.914,4684.18
827.188,4675.6
827.461,4671.7
827.735,4659.48
828.008,4662.46
828.282,4665.52
828.555,4668.66
828.828,4679.1
829.102,4691.02
829.375,4731.66
829.649,4758.16
829.922,4747.68
830.195,4701.94
830.469,4681.02
830.742,4673.2
831.016,4686.56
831.289,4672.38
831.562,4656.56
831.836,4645.24
832.109,4644.3
832.382,4643.34
832.656,4646.86
832.929,4680.28
833.202,4717.36
833.476,4728.0
833.749,4701.36
834.022,4660.84
834.295,4631.6
834.569,4615.88
834.842,4602.56
835.115,4621.88
835.388,4633.1
835.662,4639.98
835.935,4641.28
836.208,4634.34
836.481,4613.16
836.755,4595.6
837.028,4586.28
837.301,4601.16
837.574,4583.62
837.848,4582.76
838.121,4577.24
838.394,4572.5
838.667,4574.72
838.94,4587.38
839.213,4563.02
839.487,4549.62
839.76,4556.36
840.033,4548.24
840.306,4531.24
840.579,4552.1
840.852,4548.58
841.125,4534.2
841.399,4534.1
841.672,4533.9
841.945,4533.58
842.218,4547.82
842.491,4528.06
842.764,4534.22
843.037,4523.36
843.31,4510.46
843.583,4508.02
843.856,4522.7
844.129,4515.96
844.402,4518.58
844.675,4512.7
844.948,4509.0
845.221,4506.74
845.495,4497.38
845.768,4495.98
846.041,4493.64
846.314,4499.66
846.586,4488.74
846.859,4478.78
847.132,4486.4
847.405,4484.72
847.678,4492.86
847.951,4485.2
848.224,4485.44
848.497,4489.54
848.77,4487.22
849.043,4484.12
849.316,4466.82
849.589,4457.2
849.862,4461.26
850.135,4451.96
850.408,4459.46
850.681,4460.22
850.953,4456.78
851.226,4448.82
851.499,4444.42
851.772,4453.98
852.045,4454.22
852.318,4460.3
852.591,4453.32
852.863,4450.66
853.136,4439.44
853.409,4435.08
853.682,4431.24
853.955,4433.24
854.227,4421.24
854.5,4435.46
854.773,4426.46
855.046,4426.46
855.318,4438.72
855.591,4451.46
855.864,4460.58
856.137,4454.54
856.409,4458.68
856.682,4458.82
856.955,4453.02
857.228,4436.16
857.5,4440.26
857.773,4449.6
858.046,4443.8
858.318,4437.86
858.591,4434.56
858.864,4422.74
859.137,4425.76
859.409,4420.14
859.682,4413.72
859.954,4417.96
860.227,4432.08
860.5,4438.76
860.772,4431.84
861.045,4427.46
861.318,4431.54
861.59,4423.68
861.863,4421.84
862.135,4414.32
862.408,4412.36
862.681,4410.1
862.953,4406.96
863.226,4387.92
863.498,4389.76
863.771,4404.82
864.043,4393.28
864.316,4394.02
864.588,4401.74
864.861,4403.36
865.133,4402.0
865.406,4394.08
865.678,4394.52
865.951,4401.28
866.223,4399.72
866.496,4392.42
866.768,4396.74
867.041,4417.32
867.313,4412.12
867.586,4413.36
867.858,4403.34
868.131,4409.4
868.403,4386.92
868.675,4377.4
868.948,4371.92
869.22,4379.06
869.493,4378.92
869.765,4380.92
870.037,4379.36
870.31,4362.66
870.582,4368.18
870.854,4370.72
871.127,4381.38
871.399,4385.68
871.672,4387.94
871.944,4393.48
872.216,4413.08
872.488,4432.46
872.761,4456.2
873.033,4462.06
873.305,4468.28
873.578,4467.24
873.85,4475.96
874.122,4451.76
874.394,4437.4
874.667,4437.28
874.939,4409.2
875.211,4391.32
875.483,4388.52
875.756,4393.78
876.028,4398.08
876.3,4404.04
876.572,4406.04
876.845,4401.9
877.117,4405.12
877.389,4396.84
877.661,4387.26
877.933,4363.94
878.205,4355.78
878.478,4346.72
878.75,4342.52
879.022,4330.38
879.294,4331.2
879.566,4334.58
879.838,4335.52
880.11,4325.2
880.382,4318.98
880.654,4322.74
880.927,4321.74
881.199,4316.28
881.471,4318.52
881.743,4329.12
882.015,4320.04
882.287,4320.24
882.559,4322.86
882.831,4327.16
883.103,4322.4
883.375,4332.74
883.647,4336.56
883.919,4352.7
884.191,4360.5
884.463,4352.2
884.735,4356.1
885.007,4353.02
885.279,4339.04
885.551,4342.68
885.823,4334.26
886.095,4328.88
886.367,4317.26
886.639,4298.72
886.91,4303.52
887.182,4295.68
887.454,4297.6
887.726,4297.04
887.998,4282.6
888.27,4282.76
888.542,4278.26
888.814,4283.98
889.085,4278.28
889.357,4285.94
889.629,4282.54
889.901,4276.3
890.173,4274.12
890.445,4273.92
890.716,4280.62
890.988,4293.1
891.26,4310.04
891.532,4328.68
891.804,4360.04
892.075,4365.04
892.347,4358.24
892.619,4371.64
892.891,4374.54
893.162,4349.78
893.434,4321.32
893.706,4296.36
893.978,4271.64
894.249,4253.66
894.521,4245.36
894.793,4235.32
895.064,4238.44
895.336,4230.32
895.608,4221.88
895.879,4224.26
896.151,4212.06
896.423,4200.16
896.694,4200.84
896.966,4191.98
897.237,4191.68
897.509,4199.5
897.781,4199.46
898.052,4192.34
898.324,4188.66
898.595,4183.6
898.867,4179.56
899.139,4172.54
899.41,4175.6
899.682,4181.04
899.953,4182.4
900.225,4172.98
900.496,4167.8
900.768,4168.84
901.039,4157.32
901.311,4156.74
901.582,4154.62
901.854,4156.62
902.125,4158.9
902.397,4158.62
902.668,4160.3
902.94,4160.72
903.211,4160.18
903.482,4150.56
903.754,4151.82
904.025,4161.4
904.297,4155.88
904.568,4149.5
904.839,4145.7
905.111,4135.72
905.382,4145.84
905.654,4137.22
905.925,4134.76
906.196,4138.04
906.468,4131.24
906.739,4132.78
907.01,4130.26
907.282,4131.44
907.553,4122.76
907.824,4124.22
908.096,4123.66
908.367,4117.44
908.638,4112.24
908.909,4107.96
909.181,4110.78
909.452,4119.04
909.723,4108.7
909.994,4110.62
910.266,4112.96
910.537,4101.52
910.808,4103.04
911.079,4103.76
911.35,4103.88
911.622,4100.3
911.893,4095.2
912.164,4096.26
912.435,4087.18
912.706,4088.4
912.977,4093.88
913.249,4086.06
913.52,4089.7
913.791,4082.56
914.062,4084.24
914.333,4078.0
914.604,4079.26
914.875,4075.9
915.146,4075.58
915.417,4076.86
915.688,4077.28
915.959,4072.56
916.231,4069.9
916.502,4073.84
916.773,4072.9
917.044,4070.82
917.315,4069.06
917.586,4063.34
917.857,4061.28
918.128,4059.04
918.399,4062.14
918.67,4064.58
918.941,4068.62
919.211,4068.08
919.482,4059.74
919.753,4057.78
920.024,4056.32
920.295,4054.9
920.566,4052.08
920.837,4051.58
921.108,4052.48
921.379,4047.28
921.65,4042.22
921.921,4044.22
922.191,4047.7
922.462,4047.44
922.733,4036.68
923.004,4037.76
923.275,4040.4
923.546,4028.38
923.816,4030.08
924.087,4028.52
924.358,4033.66
924.629,4037.1
924.9,4030.0
925.17,4024.16
925.441,4028.78
925.712,4025.7
925.983,4021.3
926.253,4021.28
926.524,4018.28
926.795,4018.9
927.065,4016.16
927.336,4013.14
927.607,4013.4
927.877,4011.94
928.148,4010.4
928.419,4004.54
928.689,4002.3
928.96,3999.86
929.231,3996.72
929.501,3996.9
929.772,3997.94
930.043,3991.98
930.313,3990.0
930.584,3986.74
930.854,3981.52
931.125,3981.54
931.396,3982.86
931.666,3978.14
931.937,3973.06
932.207,3976.16
932.478,3971.84
932.748,3973.84
933.019,3974.08
933.289,3971.68
933.56,3969.48
933.83,3967.54
934.101,3969.6
934.371,3967.96
934.642,3969.08
934.912,3971.24
935.183,3968.14
935.453,3960.36
935.723,3960.08
935.994,3958.78
936.264,3955.82
936.535,3956.62
936.805,3954.66
937.075,3953.58
937.346,3950.04
937.616,3949.56
937.886,3947.3
938.157,3946.54
938.427,3945.82
938.697,3948.36
938.968,3949.98
939.238,3944.66
939.508,3943.48
939.779,3944.38
940.049,3944.16
940.319,3945.84
940.59,3943.02
940.86,3942.04
941.13,3937.6
941.4,3932.94
941.671,3934.74
941.941,3936.7
942.211,3936.42
942.481,3935.18
942.751,3931.16
943.022,3927.28
943.292,3925.84
943.562,3926.88
943.832,3922.9
944.102,3919.6
944.372,3920.8
944.642,3917.66
944.913,3920.84
945.183,3922.8
945.453,3920.14
945.723,3912.8
945.993,3913.38
946.263,3914.9
946.533,3912.84
946.803,3911.42
947.073,3912.36
947.343,3911.08
947.613,3910.28
947.883,3910.68
948.153,3908.26
948.423,3906.24
948.693,3905.12
948.963,3904.74
949.233,3905.46
949.503,3906.84
949.773,3903.6
950.043,3903.92
950.313,3899.4
950.583,3898.32
950.853,3898.14
951.123,3896.64
951.393,3892.08
951.663,3896.58
951.933,3892.96
952.202,3897.08
952.472,3895.46
952.742,3893.28
953.012,3895.78
953.282,3889.98
953.552,3888.5
953.822,3890.56
954.091,3888.1
954.361,3886.1
954.631,3885.98
954.901,3884.78
955.17,3883.58
955.44,3880.08
955.71,3881.6
955.98,3883.36
956.25,3882.98
956.519,3881.32
956.789,3877.72
957.059,3877.56
957.328,3875.92
957.598,3877.04
957.868,3875.7
958.137,3872.18
958.407,3870.76
958.677,3870.08
958.946,3871.9
959.216,3872.1
959.486,3865.74
959.755,3865.06
960.025,3867.96
960.294,3870.32
960.564,3865.28
960.834,3864.36
961.103,3865.56
961.373,3864.18
961.642,3862.68
961.912,3860.7
962.181,3859.62
962.451,3856.72
962.72,3856.6
962.99,3861.36
963.259,3860.42
963.529,3863.46
963.798,3857.26
964.068,3855.22
964.337,3854.68
964.607,3850.86
964.876,3852.22
965.146,3853.98
965.415,3850.64
965.684,3854.3
965.954,3852.7
966.223,3848.0
966.493,3850.78
966.762,3850.58
967.031,3847.92
967.301,3847.94
967.57,3847.94
967.839,3846.24
968.109,3847.74
968.378,3846.74
968.647,3848.66
968.917,3843.66
969.186,3843.9
969.455,3843.1
969.724,3841.96
969.994,3842.9
970.263,3841.3
970.532,3841.58
970.801,3842.64
971.071,3841.12
971.34,3836.62
971.609,3838.74
971.878,3840.32
972.147,3838.52
972.417,3835.3
972.686,3833.38
972.955,3833.04
973.224,3833.58
973.493,3834.54
973.762,3831.54
974.031,3831.66
974.3,3831.78
974.57,3828.74
974.839,3826.4
975.108,3827.46
975.377,3828.16
975.646,3826.48
975.915,3825.6
976.184,3823.08
976.453,3823.8
976.722,3824.42
976.991,3825.5
977.26,3826.36
977.529,3824.56
977.798,3822.3
978.067,3820.08
978.336,3823.88
978.605,3823.84
978.874,3821.06
979.143,3820.06
979.412,3817.18
979.68,3816.18
979.949,3817.96
980.218,3816.16
980.487,3816.7
980.756,3816.9
981.025,3816.8
981.294,3816.4
981.563,3815.28
981.831,3814.88
982.1,3815.26
982.369,3815.88
982.638,3814.76
982.907,3815.38
983.175,3814.62
983.444,3812.94
983.713,3812.04
983.982,3813.92
984.25,3810.78
984.519,3811.6
984.788,3809.56
985.057,3810.12
985.325,3811.06
985.594,3808.54
985.863,3808.02
986.131,3809.22
986.4,3810.38
986.669,3804.72
986.937,3804.6
987.206,3806.92
987.475,3806.56
987.743,3807.0
988.012,3805.86
988.28,3803.9
988.549,3801.52
988.817,3804.56
989.086,3802.56
989.355,3801.68
989.623,3800.04
989.892,3802.38
990.16,3799.36
990.429,3801.24
990.697,3800.18
990.966,3799.12
991.234,3798.26
991.503,3800.28
991.771,3798.96
992.04,3797.26
992.308,3798.96
992.576,3798.26
992.845,3795.04
993.113,3796.14
993.382,3795.62
993.65,3793.24
993.918,3793.96
994.187,3792.26
994.455,3793.82
994.723,3790.34
994.992,3791.58
995.26,3790.98
995.528,3793.74
995.797,3793.08
996.065,3792.64
996.333,3792.14
996.602,3792.56
996.87,3789.74
997.138,3790.28
997.406,3789.66
997.675,3790.06
997.943,3789.8
998.211,3789.02
998.479,3789.24
998.747,3787.12
999.016,3788.84
999.284,3787.9
999.552,3784.84
999.82,3785.72
1000.09,3784.32
1000.36,3783.08
1000.62,3784.46
1000.89,3781.76
1001.16,3782.62
1001.43,3782.24
1001.7,3781.14
1001.97,3781.06
1002.23,3779.82
1002.5,3779.78
1002.77,3779.4
1003.04,3778.4
1003.31,3777.02
1003.57,3777.26
1003.84,3778.16
1004.11,3778.5
1004.38,3777.8
1004.65,3777.46
1004.91,3777.18
1005.18,3776.02
1005.45,3776.14
1005.72,3776.46
1005.98,3774.84
1006.25,3773.34
1006.52,3774.88
1006.79,3773.86
1007.06,3774.38
1007.32,3773.22
1007.59,3774.82
1007.86,3774.62
1008.13,3775.58
1008.4,3776.14
1008.66,3776.76
1008.93,3776.64
1009.2,3779.26
1009.47,3780.18
1009.73,3783.06
1010.0,3782.04
1010.27,3785.84
1010.54,3787.76
1010.81,3787.78
1011.07,3789.16
1011.34,3790.12
1011.61,3790.54
1011.88,3792.14
1012.14,3790.02
1012.41,3790.86
1012.68,3789.78
1012.95,3788.98
1013.21,3788.54
1013.48,3787.76
1013.75,3787.0
1014.02,3784.04
1014.29,3783.88
1014.55,3784.6
1014.82,3783.88
1015.09,3784.8
1015.36,3784.8
1015.62,3783.82
1015.89,3780.86
1016.16,3777.78
1016.43,3779.24
1016.69,3777.26
1016.96,3777.28
1017.23,3777.6
1017.5,3773.56
1017.76,3771.7
1018.03,3771.4
1018.3,3770.2
1018.57,3770.08
1018.83,3766.68
1019.1,3766.54
1019.37,3766.7
1019.63,3767.0
1019.9,3766.52
1020.17,3765.48
1020.44,3764.02
1020.7,3762.02
1020.97,3762.18
1021.24,3761.32
1021.51,3761.16
1021.77,3760.74
1022.04,3758.98
1022.31,3757.42
1022.58,3757.88
1022.84,3757.5
1023.11,3756.62
1023.38,3755.86
1023.64,3755.32
1023.91,3755.66
1024.18,3755.42
1024.45,3757.34
1024.71,3755.08
1024.98,3754.5
1025.25,3754.56
1025.51,3754.5
1025.78,3752.94
1026.05,3753.8
1026.32,3753.62
1026.58,3753.6
1026.85,3753.42
1027.12,3751.98
1027.38,3752.86
1027.65,3752.46
1027.92,3752.44
1028.19,3750.84
1028.45,3749.92
1028.72,3751.08
1028.99,3751.2
1029.25,3750.46
1029.52,3749.68
1029.79,3751.12
1030.05,3749.82
1030.32,3749.16
1030.59,3749.52
1030.85,3748.86
1031.12,3749.66
1031.39,3748.16
1031.66,3750.22
1031.92,3747.62
1032.19,3748.74
1032.46,3749.62
1032.72,3747.82
1032.99,3749.34
1033.26,3747.4
1033.52,3748.4
1033.79,3749.0
1034.06,3748.66
1034.32,3748.2
1034.59,3748.06
1034.86,3748.06
1035.12,3747.92
1035.39,3747.36
1035.66,3746.46
1035.92,3747.9
1036.19,3747.24
1036.46,3746.48
1036.72,3745.26
1036.99,3747.02
1037.26,3746.2
1037.52,3745.88
1037.79,3745.78
1038.06,3746.98
1038.32,3746.62
1038.59,3745.6
1038.86,3746.72
1039.12,3745.26
1039.39,3745.14
1039.66,3744.94
1039.92,3745.32
1040.19,3744.42
1040.46,3744.62
1040.72,3744.84
1040.99,3743.86
1041.26,3743.56
1041.52,3744.22
1041.79,3745.52
1042.06,3743.86
1042.32,3743.52
1042.59,3743.46
1042.86,3743.36
1043.12,3743.02
1043.39,3743.94
1043.65,3743.28
1043.92,3743.66
1044.19,3742.18
1044.45,3743.92
1044.72,3742.66
1044.99,3742.44
1045.25,3741.9
1045.52,3742.6
1045.79,3741.58
1046.05,3742.42
1046.32,3741.9
1046.58,3741.94
1046.85,3743.6
1047.12,3742.4
1047.38,3742.52
1047.65,3742.28
1047.92,3741.24
1048.18,3741.12
1048.45,3741.72
1048.71,3741.68
1048.98,3741.2
1049.25,3741.1
1049.51,3740.98
1049.78,3740.54
1050.04,3740.62
1050.31,3741.28
1050.58,3741.14
1050.84,3741.26
1051.11,3741.28
1051.37,3740.76
1051.64,3741.32
1051.91,3741.66
1052.17,3741.32
1052.44,3740.32
1052.7,3740.44
1052.97,3740.86
1053.24,3740.5
1053.5,3741.06
1053.77,3740.0
1054.03,3740.22
1054.3,3740.22
1054.57,3740.56
1054.83,3739.2
1055.1,3740.52
1055.36,3740.56
1055.63,3740.28
1055.9,3740.22
1056.16,3741.0
1056.43,3739.24
1056.69,3739.88
1056.96,3739.08
1057.23,3740.02
1057.49,3739.78
1057.76,3739.72
1058.02,3739.1
1058.29,3739.88
1058.55,3739.26
1058.82,3739.24
1059.09,3739.34
1059.35,3740.4
1059.62,3740.26
1059.88,3739.6
1060.15,3739.5
1060.41,3740.2
1060.68,3739.58
1060.95,3739.24
1061.21,3739.78
1061.48,3739.1
1061.74,3738.46
1062.01,3739.7
1062.27,3738.92
1062.54,3739.34
1062.8,3739.9
1063.07,3739.12
1063.34,3738.36
1063.6,3739.5
1063.87,3738.36
1064.13,3738.52
1064.4,3737.94
1064.66,3739.36
1064.93,3737.28
1065.19,3738.92
1065.46,3738.16
1065.73,3738.7
1065.99,3738.04
1066.26,3739.18
1066.52,3738.26
1066.79,3737.56
1067.05,3738.74
1067.32,3738.56
1067.58,3737.7
1067.85,3737.52
1068.11,3737.58
