nm,Intensity
526.532,830.529
526.669,830.671
526.805,830.329
526.942,830.4
527.079,830.386
527.216,830.171
527.352,830.629
527.489,830.557
527.625,830.214
527.762,830.257
527.899,830.329
528.035,830.314
528.172,829.971
528.309,830.4
528.445,830.486
528.582,830.686
528.718,830.843
528.855,830.286
528.992,830.271
529.128,829.643
529.265,830.229
529.401,830.171
529.538,830.171
529.674,830.343
529.811,830.257
529.947,830.543
530.084,830.386
530.22,829.857
530.357,830.014
530.493,830.343
530.63,829.486
530.766,830.343
530.903,830.386
531.039,830.514
531.176,830.043
531.312,830.071
531.449,830.0
531.585,830.429
531.721,830.229
531.858,830.714
531.994,835.629
532.131,857.586
532.267,852.057
532.403,833.214
532.54,830.786
532.676,830.429
532.812,830.486
532.949,830.186
533.085,830.243
533.221,830.329
533.358,830.371
533.494,830.3
533.63,831.571
533.767,840.643
533.903,874.114
534.039,912.071
534.176,926.486
534.312,929.243
534.448,926.729
534.584,927.271
534.721,927.371
534.857,928.029
534.993,926.057
535.129,925.857
535.266,927.514
535.402,929.671
535.538,931.586
535.674,932.043
535.81,936.757
535.947,946.971
536.083,970.6
536.219,1004.9
536.355,991.386
536.491,962.614
536.627,941.729
536.764,935.5
536.9,931.843
537.036,933.343
537.172,932.943
537.308,937.757
537.444,939.257
537.58,944.414
537.716,948.171
537.852,951.9
537.988,955.714
538.125,960.743
538.261,961.743
538.397,963.0
538.533,967.614
538.669,969.229
538.805,970.171
538.941,970.614
539.077,970.943
539.213,968.871
539.349,966.043
539.485,963.657
539.621,961.714
539.757,960.129
539.893,958.457
540.029,959.043
540.165,954.429
540.301,952.129
540.437,951.714
540.572,947.857
540.708,946.5
540.844,943.886
540.98,945.129
541.116,946.971
541.252,948.714
541.388,948.257
541.524,950.414
541.66,950.671
541.795,951.486
541.931,951.229
542.067,949.9
542.203,954.257
542.339,952.686
542.475,952.843
542.611,954.3
542.746,955.8
542.882,957.9
543.018,957.714
543.154,958.914
543.289,961.443
543.425,963.171
543.561,965.6
543.697,969.943
543.833,969.143
543.968,976.429
544.104,982.129
544.24,990.086
544.375,1000.53
544.511,1013.37
544.647,1024.91
544.783,1042.04
544.918,1057.54
545.054,1068.67
545.19,1068.43
545.325,1059.7
545.461,1038.61
545.597,1016.91
545.732,998.657
545.868,980.657
546.004,970.143
546.139,963.014
546.275,958.371
546.41,953.0
546.546,952.414
546.682,951.229
546.817,951.443
546.953,950.586
547.088,949.9
547.224,950.343
547.36,950.357
547.495,949.386
547.631,948.543
547.766,947.429
547.902,948.1
548.037,949.571
548.173,949.2
548.308,951.514
548.444,952.514
548.579,956.914
548.715,958.543
548.85,964.729
548.986,970.557
549.121,976.229
549.257,983.329
549.392,994.657
549.528,1003.03
549.663,1017.69
549.798,1030.8
549.934,1039.76
550.069,1042.06
550.205,1035.86
550.34,1024.2
550.475,1009.91
550.611,996.5
550.746,985.986
550.882,977.543
551.017,969.486
551.152,964.543
551.288,958.386
551.423,954.743
551.558,951.457
551.694,949.229
551.829,948.657
551.964,948.714
552.1,946.643
552.235,944.771
552.37,945.8
552.505,943.3
552.641,942.243
552.776,940.957
552.911,939.957
553.047,938.429
553.182,938.1
553.317,937.243
553.452,935.586
553.588,935.157
553.723,934.529
553.858,932.857
553.993,931.729
554.128,930.271
554.264,931.686
554.399,930.529
554.534,929.986
554.669,927.257
554.804,927.2
554.939,926.971
555.075,928.886
555.21,926.214
555.345,925.686
555.48,927.371
555.615,925.757
555.75,925.843
555.885,926.286
556.02,927.157
556.155,925.514
556.291,924.714
556.426,925.971
556.561,926.029
556.696,926.7
556.831,927.7
556.966,926.257
557.101,925.9
557.236,925.4
557.371,925.371
557.506,924.314
557.641,926.171
557.776,924.7
557.911,923.671
558.046,924.786
558.181,925.029
558.316,924.614
558.451,925.429
558.586,924.871
558.721,924.629
558.856,923.029
558.991,923.514
559.126,924.157
559.261,922.614
559.396,925.014
559.531,923.671
559.665,925.143
559.8,925.157
559.935,924.929
560.07,924.243
560.205,926.071
560.34,925.214
560.475,925.557
560.61,924.757
560.745,926.471
560.879,926.9
561.014,926.829
561.149,926.229
561.284,925.414
561.419,925.229
561.553,924.714
561.688,926.029
561.823,926.114
561.958,927.429
562.093,926.886
562.227,928.114
562.362,924.957
562.497,927.6
562.632,926.857
562.767,928.457
562.901,929.5
563.036,929.757
563.171,930.457
563.305,931.757
563.44,931.314
563.575,932.543
563.71,934.214
563.844,940.871
563.979,953.643
564.114,959.629
564.248,947.114
564.383,939.143
564.518,938.6
564.652,938.486
564.787,937.829
564.922,938.357
565.056,937.257
565.191,936.929
565.325,935.571
565.46,937.757
565.595,936.671
565.729,937.986
565.864,941.929
565.999,949.529
566.133,964.957
566.268,961.871
566.402,948.971
566.537,941.2
566.671,939.314
566.806,936.586
566.94,936.9
567.075,937.114
567.21,938.3
567.344,938.5
567.479,940.243
567.613,940.271
567.748,938.957
567.882,938.571
568.017,939.057
568.151,938.386
568.285,938.771
568.42,939.4
568.554,938.6
568.689,939.043
568.823,940.414
568.958,941.129
569.092,942.343
569.227,940.843
569.361,943.457
569.495,943.314
569.63,944.486
569.764,944.414
569.899,943.414
570.033,946.071
570.167,941.871
570.302,946.157
570.436,946.086
570.571,945.157
570.705,947.9
570.839,948.171
570.974,950.071
571.108,949.657
571.242,950.671
571.377,959.214
571.511,986.114
571.645,993.457
571.78,965.514
571.914,956.686
572.048,954.371
572.182,953.643
572.317,951.671
572.451,953.129
572.585,951.529
572.719,949.957
572.854,952.929
572.988,951.4
573.122,951.414
573.256,952.814
573.391,952.0
573.525,952.243
573.659,953.743
573.793,954.414
573.927,956.871
574.062,958.029
574.196,955.343
574.33,955.757
574.464,955.757
574.598,955.2
574.733,953.743
574.867,955.2
575.001,955.0
575.135,956.1
575.269,956.343
575.403,960.286
575.537,969.543
575.671,974.014
575.806,969.114
575.94,968.6
576.074,974.329
576.208,986.9
576.342,995.729
576.476,990.157
576.61,982.614
576.744,978.657
576.878,979.529
577.012,979.914
577.146,979.371
577.28,976.971
577.414,972.486
577.548,967.057
577.682,965.614
577.817,964.743
577.951,962.557
578.085,961.357
578.219,961.243
578.353,961.0
578.486,961.543
578.62,962.271
578.754,961.514
578.888,962.929
579.022,961.471
579.156,960.971
579.29,961.714
579.424,962.886
579.558,961.629
579.692,961.9
579.826,963.014
579.96,963.8
580.094,963.571
580.228,965.186
580.362,962.543
580.496,963.171
580.629,963.914
580.763,963.271
580.897,964.286
581.031,963.829
581.165,964.014
581.299,964.729
581.433,963.3
581.566,964.671
581.7,966.014
581.834,963.3
581.968,965.929
582.102,964.814
582.236,966.986
582.369,964.586
582.503,965.314
582.637,966.929
582.771,965.857
582.905,966.843
583.038,966.157
583.172,967.1
583.306,965.514
583.44,965.443
583.573,964.543
583.707,966.314
583.841,965.457
583.975,967.5
584.108,964.943
584.242,966.686
584.376,966.157
584.509,966.971
584.643,964.671
584.777,964.543
584.911,965.543
585.044,964.414
585.178,964.814
585.312,965.357
585.445,965.7
585.579,964.514
585.713,965.257
585.846,965.929
585.98,965.6
586.113,965.257
586.247,967.729
586.381,965.829
586.514,967.129
586.648,966.457
586.782,967.214
586.915,967.271
587.049,967.086
587.182,967.071
587.316,967.829
587.45,966.7
587.583,965.529
587.717,965.014
587.85,965.386
587.984,966.686
588.117,964.5
588.251,964.171
588.384,966.2
588.518,966.257
588.651,964.229
588.785,962.9
588.919,962.886
589.052,962.471
589.186,962.457
589.319,962.543
589.453,963.557
589.586,961.571
589.72,963.714
589.853,963.471
589.986,964.114
590.12,964.286
590.253,963.543
590.387,964.157
590.52,961.771
590.654,964.614
590.787,963.314
590.921,964.343
591.054,965.614
591.187,965.271
591.321,963.014
591.454,964.4
591.588,963.371
591.721,962.8
591.854,964.643
591.988,964.314
592.121,963.614
592.255,963.614
592.388,961.114
592.521,962.257
592.655,965.386
592.788,962.057
592.921,961.871
593.055,961.6
593.188,962.6
593.321,963.329
593.455,963.043
593.588,963.843
593.721,963.314
593.855,964.614
593.988,964.214
594.121,961.457
594.255,962.957
594.388,962.814
594.521,963.129
594.654,961.8
594.788,962.414
594.921,963.971
595.054,963.114
595.187,965.143
595.321,965.314
595.454,965.057
595.587,964.4
595.72,964.229
595.854,963.857
595.987,966.729
596.12,966.114
596.253,965.443
596.387,965.8
596.52,964.443
596.653,966.771
596.786,964.814
596.919,965.814
597.052,966.343
597.186,966.171
597.319,966.143
597.452,965.286
597.585,965.243
597.718,965.429
597.851,966.1
597.985,966.629
598.118,964.771
598.251,967.114
598.384,967.843
598.517,965.843
598.65,966.214
598.783,967.3
598.916,966.357
599.049,967.843
599.183,966.671
599.316,966.671
599.449,968.829
599.582,966.743
599.715,968.229
599.848,967.443
599.981,968.957
600.114,967.143
600.247,967.314
600.38,965.414
600.513,967.143
600.646,966.943
600.779,965.214
600.912,965.786
601.045,966.2
601.178,965.5
601.311,965.6
601.444,965.771
601.577,964.0
601.71,966.4
601.843,968.6
601.976,966.2
602.109,967.143
602.242,967.457
602.375,965.614
602.508,967.357
602.641,966.443
602.774,966.557
602.907,966.914
603.04,968.543
603.173,967.6
603.306,966.243
603.439,966.743
603.572,967.171
603.705,966.457
603.838,966.9
603.971,967.329
604.103,964.414
604.236,966.757
604.369,966.886
604.502,963.743
604.635,965.129
604.768,966.671
604.901,964.814
605.034,965.371
605.167,964.729
605.299,961.043
605.432,963.543
605.565,962.1
605.698,959.643
605.831,959.4
605.964,960.614
606.096,960.243
606.229,959.629
606.362,959.029
606.495,958.586
606.628,960.129
606.761,959.129
606.893,957.486
607.026,958.729
607.159,958.386
607.292,960.314
607.425,957.186
607.557,959.486
607.69,958.157
607.823,959.114
607.956,958.186
608.088,957.243
608.221,958.086
608.354,959.886
608.487,958.514
608.619,959.8
608.752,960.229
608.885,960.4
609.018,960.729
609.15,957.214
609.283,959.329
609.416,959.129
609.548,959.0
609.681,957.829
609.814,956.9
609.947,958.629
610.079,956.8
610.212,958.057
610.345,958.471
610.477,957.514
610.61,956.186
610.743,957.371
610.875,956.086
611.008,957.1
611.141,957.586
611.273,958.814
611.406,956.243
611.539,957.157
611.671,956.357
611.804,956.114
611.936,957.886
612.069,956.786
612.202,957.586
612.334,957.929
612.467,957.843
612.6,958.057
612.732,958.271
612.865,957.957
612.997,957.871
613.13,958.529
613.263,959.243
613.395,956.614
613.528,958.871
613.66,958.371
613.793,958.829
613.925,958.043
614.058,958.057
614.19,957.971
614.323,957.743
614.456,958.029
614.588,956.929
614.721,957.5
614.853,957.543
614.986,956.914
615.118,957.171
615.251,955.757
615.383,956.557
615.516,956.914
615.648,956.429
615.781,956.129
615.913,955.657
616.046,956.471
616.178,955.543
616.311,954.057
616.443,955.386
616.576,958.0
616.708,957.043
616.841,956.071
616.973,956.471
617.106,957.457
617.238,957.843
617.37,956.5
617.503,958.957
617.635,957.814
617.768,958.9
617.9,958.129
618.033,958.471
618.165,956.971
618.297,958.914
618.43,956.829
618.562,956.886
618.695,957.114
618.827,957.486
618.96,957.971
619.092,954.686
619.224,956.771
619.357,956.729
619.489,955.771
619.621,955.514
619.754,957.429
619.886,954.857
620.019,955.614
620.151,954.171
620.283,955.429
620.416,954.057
620.548,954.686
620.68,955.729
620.813,955.114
620.945,956.114
621.077,955.8
621.21,954.757
621.342,955.586
621.474,957.0
621.607,957.271
621.739,958.071
621.871,960.614
622.004,961.229
622.136,961.314
622.268,963.086
622.401,963.757
622.533,962.429
622.665,960.729
622.797,958.871
622.93,957.443
623.062,956.7
623.194,956.086
623.326,956.5
623.459,955.329
623.591,953.214
623.723,955.857
623.856,956.957
623.988,955.286
624.12,954.829
624.252,955.214
624.384,954.357
624.517,953.371
624.649,955.143
624.781,953.8
624.913,953.1
625.046,954.771
625.178,954.843
625.31,953.086
625.442,953.614
625.574,953.814
625.707,953.729
625.839,954.243
625.971,955.529
626.103,956.929
626.235,958.343
626.368,959.886
626.5,965.9
626.632,972.157
626.764,990.6
626.896,1017.79
627.028,1055.51
627.161,1087.64
627.293,1096.61
627.425,1085.83
627.557,1065.67
627.689,1053.21
627.821,1040.81
627.953,1036.33
628.086,1032.41
628.218,1042.77
628.35,1068.0
628.482,1124.09
628.614,1165.86
628.746,1121.94
628.878,1069.56
629.01,1049.43
629.143,1041.41
629.275,1033.56
629.407,1030.74
629.539,1023.11
629.671,1015.49
629.803,1009.41
629.935,1005.17
630.067,1001.97
630.199,1001.16
630.331,998.029
630.463,998.7
630.596,997.086
630.728,991.786
630.86,986.043
630.992,980.586
631.124,970.857
631.256,964.814
631.388,962.0
631.52,960.243
631.652,957.686
631.784,957.2
631.916,956.0
632.048,953.314
632.18,952.957
632.312,950.943
632.444,952.714
632.576,949.829
632.708,948.143
632.84,947.457
632.972,947.157
633.104,947.971
633.236,948.557
633.368,948.743
633.5,946.786
633.632,948.571
633.764,945.614
633.896,944.757
634.028,945.7
634.16,945.086
634.292,944.186
634.424,943.414
634.556,944.857
634.688,943.329
634.82,943.429
634.952,941.743
635.084,941.643
635.216,942.514
635.348,942.814
635.48,941.843
635.612,942.343
635.744,942.257
635.876,942.9
636.007,940.071
636.139,941.757
636.271,942.729
636.403,943.771
636.535,940.114
636.667,941.614
636.799,941.829
636.931,941.8
637.063,939.586
637.195,941.414
637.327,940.743
637.459,939.9
637.59,940.143
637.722,939.929
637.854,939.8
637.986,937.557
638.118,938.071
638.25,937.386
638.382,939.614
638.514,938.414
638.645,939.543
638.777,938.286
638.909,940.357
639.041,938.371
639.173,937.6
639.305,939.171
639.437,938.486
639.568,937.414
639.7,938.129
639.832,938.857
639.964,937.9
640.096,938.514
640.228,938.514
640.36,938.9
640.491,937.8
640.623,938.286
640.755,936.643
640.887,936.271
641.019,935.529
641.15,936.529
641.282,937.514
641.414,937.529
641.546,937.514
641.678,936.514
641.81,935.457
641.941,935.943
642.073,935.414
642.205,935.286
642.337,937.329
642.468,935.557
642.6,935.943
642.732,934.657
642.864,933.971
642.996,934.971
643.127,934.314
643.259,932.829
643.391,932.771
643.523,933.229
643.654,931.971
643.786,933.029
643.918,931.557
644.05,931.643
644.181,930.871
644.313,932.957
644.445,931.314
644.577,930.571
644.708,931.029
644.84,928.414
644.972,929.3
645.104,929.843
645.235,929.871
645.367,928.4
645.499,929.657
645.631,929.057
645.762,928.9
645.894,930.186
646.026,928.614
646.157,928.586
646.289,930.171
646.421,928.157
646.553,928.357
646.684,929.0
646.816,929.757
646.948,927.814
647.079,928.829
647.211,927.6
647.343,928.0
647.474,928.486
647.606,929.043
647.738,929.243
647.869,929.171
648.001,928.357
648.133,927.371
648.265,928.571
648.396,927.7
648.528,927.357
648.66,926.757
648.791,926.443
648.923,926.657
649.054,924.343
649.186,925.371
649.318,926.371
649.449,924.714
649.581,924.586
649.713,924.829
649.844,925.571
649.976,924.871
650.108,925.029
650.239,925.514
650.371,924.843
650.503,923.129
650.634,922.186
650.766,923.1
650.897,922.471
651.029,923.371
651.161,923.614
651.292,922.043
651.424,922.486
651.556,921.586
651.687,923.214
651.819,921.4
651.95,922.314
652.082,922.386
652.214,921.071
652.345,921.914
652.477,921.629
652.608,921.329
652.74,920.129
652.872,920.714
653.003,921.029
653.135,921.971
653.266,919.286
653.398,919.557
653.529,919.286
653.661,920.0
653.793,920.357
653.924,920.229
654.056,919.857
654.187,919.886
654.319,918.786
654.45,921.271
654.582,919.143
654.714,918.214
654.845,918.3
654.977,918.543
655.108,919.857
655.24,918.6
655.371,918.229
655.503,917.586
655.634,918.429
655.766,917.771
655.897,915.157
656.029,917.771
656.161,915.357
656.292,915.0
656.424,915.843
656.555,915.586
656.687,916.086
656.818,916.771
656.95,916.3
657.081,915.243
657.213,914.857
657.344,916.286
657.476,915.043
657.607,915.3
657.739,915.4
657.87,916.471
658.002,916.557
658.133,916.157
658.265,916.886
658.396,916.1
658.528,916.486
658.659,915.014
658.791,915.257
658.922,915.229
659.054,914.129
659.185,915.057
659.317,917.486
659.448,915.271
659.58,916.386
659.711,913.886
659.843,915.629
659.974,914.714
660.106,914.414
660.237,913.614
660.368,914.4
660.5,913.843
660.631,915.3
660.763,913.629
660.894,914.657
661.026,912.571
661.157,912.486
661.289,913.743
661.42,912.943
661.552,912.329
661.683,912.271
661.815,911.729
661.946,911.6
662.077,911.2
662.209,911.629
662.34,911.271
662.472,910.514
662.603,911.543
662.735,912.271
662.866,910.886
662.997,911.186
663.129,911.043
