nm,Intensity
526.532,830.0
526.669,829.2
526.805,831.1
526.942,830.1
527.079,830.133
527.216,829.967
527.352,831.067
527.489,830.233
527.625,829.267
527.762,830.167
527.899,830.6
528.035,830.1
528.172,830.4
528.309,830.533
528.445,830.5
528.582,829.767
528.718,831.2
528.855,831.267
528.992,830.6
529.128,831.3
529.265,830.2
529.401,830.867
529.538,829.367
529.674,830.167
529.811,830.033
529.947,830.667
530.084,830.767
530.22,830.2
530.357,829.767
530.493,830.067
530.63,830.833
530.766,830.233
530.903,830.7
531.039,830.4
531.176,831.0
531.312,830.667
531.449,829.567
531.585,830.867
531.721,829.967
531.858,830.767
531.994,838.9
532.131,875.967
532.267,865.1
532.403,834.467
532.54,831.2
532.676,830.6
532.812,830.233
532.949,830.133
533.085,830.533
533.221,829.8
533.358,829.9
533.494,830.233
533.63,831.0
533.767,834.167
533.903,845.1
534.039,857.667
534.176,863.533
534.312,862.867
534.448,863.133
534.584,863.9
534.721,863.867
534.857,865.8
534.993,864.467
535.129,864.267
535.266,863.833
535.402,864.5
535.538,865.133
535.674,866.3
535.81,865.6
535.947,866.0
536.083,864.367
536.219,863.233
536.355,863.567
536.491,863.167
536.627,863.967
536.764,862.833
536.9,864.933
537.036,863.233
537.172,865.233
537.308,863.867
537.444,864.533
537.58,864.533
537.716,865.567
537.852,864.467
537.988,863.9
538.125,865.067
538.261,864.7
538.397,864.333
538.533,864.267
538.669,864.667
538.805,863.9
538.941,862.933
539.077,863.867
539.213,865.1
539.349,866.4
539.485,864.733
539.621,865.767
539.757,866.033
539.893,864.5
540.029,865.467
540.165,866.1
540.301,866.133
540.437,865.2
540.572,865.4
540.708,864.933
540.844,865.733
540.98,865.367
541.116,865.3
541.252,866.0
541.388,867.2
541.524,867.567
541.66,868.7
541.795,868.1
541.931,867.333
542.067,867.833
542.203,869.033
542.339,866.767
542.475,869.1
542.611,868.433
542.746,868.667
542.882,870.367
543.018,869.667
543.154,869.1
543.289,867.133
543.425,867.633
543.561,867.2
543.697,868.4
543.833,869.5
543.968,869.0
544.104,869.4
544.24,871.233
544.375,869.467
544.511,872.167
544.647,870.667
544.783,871.633
544.918,873.067
545.054,874.4
545.19,872.933
545.325,874.633
545.461,874.2
545.597,872.8
545.732,873.567
545.868,873.767
546.004,873.3
546.139,873.667
546.275,874.833
546.41,875.033
546.546,874.433
546.682,873.633
546.817,873.033
546.953,875.1
547.088,873.5
547.224,875.0
547.36,876.567
547.495,875.833
547.631,875.133
547.766,876.0
547.902,876.733
548.037,877.033
548.173,877.967
548.308,876.367
548.444,877.867
548.579,878.6
548.715,877.6
548.85,880.033
548.986,882.167
549.121,878.4
549.257,877.933
549.392,878.933
549.528,878.767
549.663,879.033
549.798,879.2
549.934,881.133
550.069,879.067
550.205,880.7
550.34,881.133
550.475,878.7
550.611,879.967
550.746,880.267
550.882,879.067
551.017,879.067
551.152,879.967
551.288,881.233
551.423,879.467
551.558,880.133
551.694,881.9
551.829,881.233
551.964,879.467
552.1,880.367
552.235,880.133
552.37,879.167
552.505,878.867
552.641,879.3
552.776,882.633
552.911,878.633
553.047,881.9
553.182,880.5
553.317,879.0
553.452,880.167
553.588,881.733
553.723,879.867
553.858,881.233
553.993,881.6
554.128,881.867
554.264,882.0
554.399,881.867
554.534,881.1
554.669,881.8
554.804,881.567
554.939,880.6
555.075,883.1
555.21,881.533
555.345,880.9
555.48,879.867
555.615,883.133
555.75,882.633
555.885,884.1
556.02,883.5
556.155,882.733
556.291,883.267
556.426,883.033
556.561,884.267
556.696,881.9
556.831,884.633
556.966,885.133
557.101,883.767
557.236,885.167
557.371,886.3
557.506,886.133
557.641,884.633
557.776,885.033
557.911,885.7
558.046,885.233
558.181,884.967
558.316,887.433
558.451,886.3
558.586,886.933
558.721,886.5
558.856,888.033
558.991,887.767
559.126,888.167
559.261,887.4
559.396,889.6
559.531,889.067
559.665,887.767
559.8,889.7
559.935,888.3
560.07,890.967
560.205,891.4
560.34,891.233
560.475,891.033
560.61,892.2
560.745,892.967
560.879,892.667
561.014,893.5
561.149,897.733
561.284,900.933
561.419,901.2
561.553,900.6
561.688,900.4
561.823,901.5
561.958,895.933
562.093,896.167
562.227,897.6
562.362,897.767
562.497,897.1
562.632,899.233
562.767,901.8
562.901,899.733
563.036,901.033
563.171,901.133
563.305,901.167
563.44,899.633
563.575,902.2
563.71,902.167
563.844,904.2
563.979,906.333
564.114,905.7
564.248,904.067
564.383,905.1
564.518,905.067
564.652,907.1
564.787,907.4
564.922,909.833
565.056,907.633
565.191,906.733
565.325,906.0
565.46,906.8
565.595,906.5
565.729,904.5
565.864,905.967
565.999,905.867
566.133,904.567
566.268,904.633
566.402,904.2
566.537,904.533
566.671,904.633
566.806,905.467
566.94,907.533
567.075,905.7
567.21,903.9
567.344,905.233
567.479,905.267
567.613,905.833
567.748,905.133
567.882,906.767
568.017,905.7
568.151,905.833
568.285,904.767
568.42,907.2
568.554,907.0
568.689,908.0
568.823,909.233
568.958,905.9
569.092,908.533
569.227,910.6
569.361,909.233
569.495,908.3
569.63,910.0
569.764,910.6
569.899,910.7
570.033,910.267
570.167,908.167
570.302,909.567
570.436,910.233
570.571,909.033
570.705,910.6
570.839,910.633
570.974,911.567
571.108,908.267
571.242,909.4
571.377,910.767
571.511,910.533
571.645,910.633
571.78,908.967
571.914,912.367
572.048,912.233
572.182,912.167
572.317,914.133
572.451,910.433
572.585,914.367
572.719,913.667
572.854,916.4
572.988,914.667
573.122,915.2
573.256,916.733
573.391,915.3
573.525,915.933
573.659,914.467
573.793,917.3
573.927,917.6
574.062,919.533
574.196,919.533
574.33,917.367
574.464,918.8
574.598,917.267
574.733,918.9
574.867,918.7
575.001,916.0
575.135,920.367
575.269,918.833
575.403,921.433
575.537,919.9
575.671,919.5
575.806,919.167
575.94,918.9
576.074,919.967
576.208,921.133
576.342,919.867
576.476,922.733
576.61,922.833
576.744,923.233
576.878,924.133
577.012,924.9
577.146,923.6
577.28,925.7
577.414,923.1
577.548,925.267
577.682,923.467
577.817,924.367
577.951,924.367
578.085,924.6
578.219,925.5
578.353,924.667
578.486,923.4
578.62,926.967
578.754,926.033
578.888,924.9
579.022,924.6
579.156,926.867
579.29,926.367
579.424,926.6
579.558,927.533
579.692,926.867
579.826,928.133
579.96,929.2
580.094,926.5
580.228,927.867
580.362,927.833
580.496,928.1
580.629,928.767
580.763,929.1
580.897,929.667
581.031,926.6
581.165,928.967
581.299,928.7
581.433,930.2
581.566,931.3
581.7,931.1
581.834,932.167
581.968,933.067
582.102,931.6
582.236,934.0
582.369,932.933
582.503,932.333
582.637,933.333
582.771,932.233
582.905,933.367
583.038,933.467
583.172,932.633
583.306,933.433
583.44,934.6
583.573,934.133
583.707,934.267
583.841,935.833
583.975,934.067
584.108,934.333
584.242,937.167
584.376,937.0
584.509,935.0
584.643,935.6
584.777,936.033
584.911,936.033
585.044,936.333
585.178,936.633
585.312,937.9
585.445,937.6
585.579,936.667
585.713,939.867
585.846,938.633
585.98,937.967
586.113,938.4
586.247,940.533
586.381,940.9
586.514,940.8
586.648,940.967
586.782,940.933
586.915,943.733
587.049,944.733
587.182,943.7
587.316,941.433
587.45,943.567
587.583,945.233
587.717,942.067
587.85,941.6
587.984,943.4
588.117,944.6
588.251,942.2
588.384,942.9
588.518,943.2
588.651,941.367
588.785,944.767
588.919,941.767
589.052,941.767
589.186,942.533
589.319,943.967
589.453,942.9
589.586,943.2
589.72,944.4
589.853,944.567
589.986,944.633
590.12,944.067
590.253,946.3
590.387,946.867
590.52,947.467
590.654,946.933
590.787,946.167
590.921,948.067
591.054,946.667
591.187,945.067
591.321,944.633
591.454,949.633
591.588,944.133
591.721,948.3
591.854,946.633
591.988,945.5
592.121,947.1
592.255,947.5
592.388,948.133
592.521,949.333
592.655,946.367
592.788,950.0
592.921,946.9
593.055,947.733
593.188,948.3
593.321,948.033
593.455,947.567
593.588,947.833
593.721,950.9
593.855,949.767
593.988,950.433
594.121,951.033
594.255,951.933
594.388,950.233
594.521,949.833
594.654,951.967
594.788,949.267
594.921,953.0
595.054,952.467
595.187,952.767
595.321,953.767
595.454,953.733
595.587,950.933
595.72,952.233
595.854,950.0
595.987,953.167
596.12,951.733
596.253,953.033
596.387,950.8
596.52,955.0
596.653,951.3
596.786,950.367
596.919,952.5
597.052,951.633
597.186,952.233
597.319,951.467
597.452,951.233
597.585,952.6
597.718,953.667
597.851,949.067
597.985,955.033
598.118,955.833
598.251,957.267
598.384,955.367
598.517,956.9
598.65,961.2
598.783,956.867
598.916,958.867
599.049,957.867
599.183,957.7
599.316,958.0
599.449,960.667
599.582,960.033
599.715,958.0
599.848,958.3
599.981,959.033
600.114,957.3
600.247,957.5
600.38,957.3
600.513,956.0
600.646,957.567
600.779,955.667
600.912,954.6
601.045,956.3
601.178,955.867
601.311,955.833
601.444,953.533
601.577,956.567
601.71,957.3
601.843,956.533
601.976,954.7
602.109,955.967
602.242,956.567
602.375,954.8
602.508,954.733
602.641,960.1
602.774,958.133
602.907,957.533
603.04,956.033
603.173,956.733
603.306,958.8
603.439,959.767
603.572,958.167
603.705,961.633
603.838,960.6
603.971,958.8
604.103,959.0
604.236,961.3
604.369,961.2
604.502,958.733
604.635,957.933
604.768,959.833
604.901,958.167
605.034,957.767
605.167,958.033
605.299,955.867
605.432,957.5
605.565,958.267
605.698,957.133
605.831,958.1
605.964,955.467
606.096,957.2
606.229,957.1
606.362,956.367
606.495,957.467
606.628,955.933
606.761,960.833
606.893,958.3
607.026,956.267
607.159,960.667
607.292,958.533
607.425,958.133
607.557,959.167
607.69,962.3
607.823,958.233
607.956,962.0
608.088,961.867
608.221,962.233
608.354,962.533
608.487,960.167
608.619,960.9
608.752,960.2
608.885,962.5
609.018,960.733
609.15,959.967
609.283,962.4
609.416,963.0
609.548,959.433
609.681,959.067
609.814,958.567
609.947,960.133
610.079,958.367
610.212,960.833
610.345,960.767
610.477,959.833
610.61,959.533
610.743,962.667
610.875,960.3
611.008,959.0
611.141,960.533
611.273,960.767
611.406,961.367
611.539,961.5
611.671,963.0
611.804,967.533
611.936,963.467
612.069,964.1
612.202,965.467
612.334,964.467
612.467,964.9
612.6,964.133
612.732,965.967
612.865,967.033
612.997,965.167
613.13,970.333
613.263,966.3
613.395,966.7
613.528,968.0
613.66,970.4
613.793,966.433
613.925,967.8
614.058,964.733
614.19,966.4
614.323,970.033
614.456,967.1
614.588,963.967
614.721,968.067
614.853,964.133
614.986,966.433
615.118,966.7
615.251,964.567
615.383,963.767
615.516,965.167
615.648,965.567
615.781,966.6
615.913,962.033
616.046,962.367
616.178,963.067
616.311,964.8
616.443,964.6
616.576,965.633
616.708,963.133
616.841,965.267
616.973,967.167
617.106,967.3
617.238,967.967
617.37,968.133
617.503,967.833
617.635,967.167
617.768,966.2
617.9,968.433
618.033,969.633
618.165,970.067
618.297,970.1
618.43,968.1
618.562,967.033
618.695,966.4
618.827,969.533
618.96,968.5
619.092,968.667
619.224,967.467
619.357,965.4
619.489,966.9
619.621,965.233
619.754,967.333
619.886,968.133
620.019,966.067
620.151,966.9
620.283,967.167
620.416,968.067
620.548,965.033
620.68,965.733
620.813,964.567
620.945,967.467
621.077,966.733
621.21,965.267
621.342,965.967
621.474,966.867
621.607,965.4
621.739,962.8
621.871,963.733
622.004,964.267
622.136,964.8
622.268,965.6
622.401,968.4
622.533,965.033
622.665,964.5
622.797,966.6
622.93,965.567
623.062,968.367
623.194,965.067
623.326,966.6
623.459,966.833
623.591,968.233
623.723,966.933
623.856,969.167
623.988,967.2
624.12,967.133
624.252,965.533
624.384,966.233
624.517,967.367
624.649,965.733
624.781,964.533
624.913,966.233
625.046,964.833
625.178,967.5
625.31,967.4
625.442,964.767
625.574,966.8
625.707,970.0
625.839,968.967
625.971,967.5
626.103,968.2
626.235,968.7
626.368,966.4
626.5,967.6
626.632,966.2
626.764,966.6
626.896,965.4
627.028,969.3
627.161,966.167
627.293,966.633
627.425,966.033
627.557,961.633
627.689,965.7
627.821,965.967
627.953,965.467
628.086,964.133
628.218,962.133
628.35,961.567
628.482,965.767
628.614,966.5
628.746,964.833
628.878,964.9
629.01,963.2
629.143,967.2
629.275,963.4
629.407,964.967
629.539,964.567
629.671,965.167
629.803,963.8
629.935,962.733
630.067,963.033
630.199,963.867
630.331,962.133
630.463,962.5
630.596,962.633
630.728,963.667
630.86,965.533
630.992,965.0
631.124,964.967
631.256,966.267
631.388,963.667
631.52,965.267
631.652,965.267
631.784,962.967
631.916,967.5
632.048,964.167
632.18,963.067
632.312,964.767
632.444,965.733
632.576,964.8
632.708,965.433
632.84,963.9
632.972,963.7
633.104,961.567
633.236,962.3
633.368,962.233
633.5,962.333
633.632,964.2
633.764,964.033
633.896,962.633
634.028,961.533
634.16,963.2
634.292,960.167
634.424,962.433
634.556,960.733
634.688,960.4
634.82,961.767
634.952,959.8
635.084,960.933
635.216,959.033
635.348,960.367
635.48,961.967
635.612,960.967
635.744,961.3
635.876,960.3
636.007,958.5
636.139,960.833
636.271,960.5
636.403,959.033
636.535,960.5
636.667,961.067
636.799,960.733
636.931,959.2
637.063,959.9
637.195,960.067
637.327,959.433
637.459,958.0
637.59,960.6
637.722,958.4
637.854,958.033
637.986,959.633
638.118,958.967
638.25,962.9
638.382,960.233
638.514,959.667
638.645,958.767
638.777,960.667
638.909,958.867
639.041,962.6
639.173,960.1
639.305,959.233
639.437,960.3
639.568,959.2
639.7,960.633
639.832,960.0
639.964,960.8
640.096,957.667
640.228,958.133
640.36,960.1
640.491,959.6
640.623,958.6
640.755,960.433
640.887,957.5
641.019,957.967
641.15,960.967
641.282,957.2
641.414,958.8
641.546,959.5
641.678,956.133
641.81,958.967
641.941,958.5
642.073,957.9
642.205,957.333
642.337,956.567
642.468,957.833
642.6,955.433
642.732,957.3
642.864,955.933
642.996,955.533
643.127,954.267
643.259,954.2
643.391,953.8
643.523,953.467
643.654,952.7
643.786,951.667
643.918,952.4
644.05,951.4
644.181,951.667
644.313,951.667
644.445,954.567
644.577,950.867
644.708,951.8
644.84,951.533
644.972,951.1
645.104,951.8
645.235,952.267
645.367,949.733
645.499,950.267
645.631,950.667
645.762,953.333
645.894,952.0
646.026,952.3
646.157,953.833
646.289,953.733
646.421,950.967
646.553,954.3
646.684,953.0
646.816,953.467
646.948,953.467
647.079,952.7
647.211,949.2
647.343,953.267
647.474,952.633
647.606,949.933
647.738,952.067
647.869,952.567
648.001,954.733
648.133,951.8
648.265,949.133
648.396,950.433
648.528,950.067
648.66,951.767
648.791,946.4
648.923,951.767
649.054,950.467
649.186,950.1
649.318,952.267
649.449,948.933
649.581,949.3
649.713,946.933
649.844,949.333
649.976,948.2
650.108,945.667
650.239,947.167
650.371,949.7
650.503,947.367
650.634,947.267
650.766,947.8
650.897,946.5
651.029,946.4
651.161,947.2
651.292,946.3
651.424,948.567
651.556,945.233
651.687,944.767
651.819,947.5
651.95,949.867
652.082,946.7
652.214,946.7
652.345,947.633
652.477,947.867
652.608,946.5
652.74,946.367
652.872,945.8
653.003,944.5
653.135,944.6
653.266,946.767
653.398,946.8
653.529,946.333
653.661,947.067
653.793,946.2
653.924,947.3
654.056,945.333
654.187,946.2
654.319,944.833
654.45,944.2
654.582,945.367
654.714,943.333
654.845,944.067
654.977,945.833
655.108,945.367
655.24,944.167
655.371,945.233
655.503,944.3
655.634,946.033
655.766,943.9
655.897,945.233
656.029,944.333
656.161,945.867
656.292,943.833
656.424,944.8
656.555,941.533
656.687,942.267
656.818,942.867
656.95,942.6
657.081,943.633
657.213,940.9
657.344,944.267
657.476,942.1
657.607,943.667
657.739,941.4
657.87,940.233
658.002,943.767
658.133,941.2
658.265,940.8
658.396,942.933
658.528,940.333
658.659,943.3
658.791,941.133
658.922,940.433
659.054,940.667
659.185,941.867
659.317,942.033
659.448,937.3
659.58,940.6
659.711,936.667
659.843,940.7
659.974,941.267
660.106,940.0
660.237,939.8
660.368,936.367
660.5,938.967
660.631,937.833
660.763,938.567
660.894,936.433
661.026,937.1
661.157,938.433
661.289,937.1
661.42,937.867
661.552,937.5
661.683,936.667
661.815,934.5
661.946,935.767
662.077,932.733
662.209,934.0
662.34,933.4
662.472,933.267
662.603,934.7
662.735,931.133
662.866,933.733
662.997,931.867
663.129,932.133
