nm,Intensity
526.532,830.225
526.669,830.425
526.805,830.25
526.942,830.075
527.079,829.975
527.216,830.7
527.352,830.175
527.489,830.675
527.625,829.925
527.762,830.425
527.899,829.725
528.035,829.75
528.172,830.1
528.309,829.85
528.445,830.0
528.582,830.2
528.718,830.6
528.855,829.975
528.992,830.0
529.128,830.625
529.265,829.625
529.401,830.65
529.538,830.15
529.674,829.575
529.811,830.2
529.947,829.35
530.084,829.45
530.22,831.175
530.357,829.875
530.493,829.775
530.63,829.975
530.766,830.15
530.903,830.225
531.039,829.95
531.176,830.125
531.312,830.95
531.449,830.175
531.585,830.6
531.721,830.55
531.858,829.6
531.994,835.925
532.131,860.075
532.267,854.0
532.403,834.225
532.54,831.05
532.676,830.475
532.812,829.3
532.949,829.95
533.085,830.525
533.221,830.425
533.358,829.525
533.494,830.125
533.63,830.65
533.767,834.375
533.903,846.0
534.039,859.875
534.176,864.675
534.312,864.45
534.448,863.8
534.584,862.15
534.721,862.775
534.857,860.225
534.993,858.825
535.129,857.85
535.266,855.825
535.402,855.7
535.538,856.225
535.674,855.725
535.81,854.825
535.947,853.95
536.083,854.75
536.219,853.825
536.355,852.925
536.491,852.725
536.627,851.525
536.764,853.2
536.9,851.85
537.036,850.95
537.172,852.3
537.308,854.1
537.444,853.425
537.58,853.95
537.716,854.55
537.852,854.275
537.988,855.0
538.125,856.0
538.261,855.125
538.397,854.55
538.533,855.3
538.669,854.1
538.805,854.625
538.941,854.125
539.077,854.85
539.213,853.6
539.349,854.225
539.485,853.825
539.621,852.5
539.757,853.05
539.893,853.575
540.029,853.275
540.165,853.0
540.301,851.85
540.437,852.15
540.572,853.05
540.708,851.85
540.844,851.6
540.98,851.0
541.116,851.65
541.252,852.05
541.388,852.35
541.524,853.35
541.66,852.9
541.795,852.725
541.931,852.95
542.067,851.9
542.203,852.4
542.339,852.425
542.475,852.225
542.611,852.975
542.746,853.05
542.882,852.7
543.018,853.675
543.154,853.9
543.289,852.275
543.425,853.875
543.561,854.6
543.697,854.35
543.833,854.225
543.968,854.275
544.104,856.25
544.24,855.675
544.375,857.5
544.511,858.175
544.647,856.375
544.783,858.775
544.918,859.5
545.054,861.25
545.19,860.075
545.325,860.725
545.461,857.675
545.597,858.35
545.732,856.275
545.868,855.325
546.004,855.1
546.139,853.05
546.275,853.075
546.41,853.4
546.546,854.25
546.682,853.2
546.817,853.625
546.953,853.525
547.088,853.725
547.224,853.15
547.36,854.55
547.495,853.475
547.631,854.075
547.766,852.725
547.902,853.8
548.037,854.625
548.173,853.6
548.308,852.8
548.444,854.2
548.579,854.9
548.715,854.475
548.85,854.025
548.986,855.275
549.121,857.8
549.257,857.525
549.392,857.925
549.528,860.525
549.663,861.425
549.798,861.275
549.934,862.025
550.069,862.3
550.205,862.2
550.34,861.375
550.475,859.125
550.611,858.975
550.746,857.725
550.882,856.875
551.017,857.775
551.152,856.7
551.288,855.9
551.423,855.9
551.558,856.125
551.694,857.275
551.829,855.475
551.964,856.375
552.1,856.5
552.235,856.525
552.37,855.775
552.505,855.125
552.641,856.175
552.776,855.525
552.911,855.25
553.047,855.55
553.182,856.375
553.317,856.775
553.452,856.525
553.588,856.4
553.723,857.025
553.858,856.775
553.993,855.4
554.128,856.975
554.264,856.225
554.399,855.3
554.534,856.2
554.669,856.45
554.804,856.5
554.939,856.95
555.075,856.375
555.21,857.425
555.345,856.35
555.48,856.15
555.615,856.55
555.75,857.225
555.885,856.125
556.02,855.225
556.155,856.65
556.291,856.725
556.426,856.475
556.561,857.2
556.696,857.35
556.831,857.8
556.966,858.025
557.101,857.775
557.236,858.525
557.371,858.4
557.506,857.825
557.641,858.475
557.776,859.175
557.911,860.35
558.046,858.725
558.181,858.525
558.316,858.775
558.451,859.4
558.586,857.775
558.721,857.9
558.856,858.225
558.991,858.075
559.126,858.125
559.261,858.35
559.396,858.35
559.531,858.2
559.665,858.8
559.8,858.825
559.935,856.95
560.07,857.725
560.205,857.5
560.34,858.2
560.475,859.2
560.61,857.975
560.745,858.7
560.879,858.25
561.014,857.7
561.149,859.4
561.284,858.85
561.419,859.525
561.553,857.775
561.688,857.625
561.823,859.75
561.958,858.7
562.093,858.825
562.227,859.675
562.362,859.475
562.497,860.075
562.632,860.3
562.767,860.35
562.901,861.2
563.036,860.95
563.171,862.05
563.305,861.775
563.44,863.4
563.575,864.3
563.71,864.075
563.844,871.825
563.979,881.725
564.114,886.9
564.248,876.15
564.383,869.725
564.518,867.15
564.652,869.25
564.787,868.325
564.922,867.25
565.056,867.4
565.191,865.675
565.325,864.95
565.46,863.875
565.595,866.725
565.729,866.625
565.864,868.925
565.999,878.3
566.133,890.35
566.268,886.325
566.402,874.95
566.537,867.475
566.671,865.275
566.806,864.225
566.94,864.2
567.075,863.275
567.21,863.5
567.344,864.95
567.479,865.7
567.613,866.0
567.748,864.875
567.882,862.5
568.017,865.075
568.151,863.0
568.285,863.425
568.42,862.175
568.554,864.125
568.689,863.625
568.823,863.8
568.958,864.25
569.092,864.5
569.227,863.475
569.361,864.9
569.495,863.875
569.63,865.4
569.764,865.725
569.899,865.15
570.033,865.175
570.167,864.5
570.302,866.8
570.436,865.975
570.571,865.525
570.705,868.4
570.839,866.825
570.974,866.125
571.108,869.475
571.242,870.375
571.377,877.1
571.511,898.35
571.645,909.45
571.78,886.975
571.914,878.575
572.048,875.775
572.182,873.75
572.317,871.875
572.451,871.125
572.585,869.6
572.719,868.35
572.854,868.6
572.988,868.575
573.122,867.2
573.256,867.0
573.391,867.275
573.525,867.35
573.659,867.75
573.793,868.975
573.927,870.125
574.062,870.525
574.196,869.7
574.33,868.425
574.464,868.55
574.598,867.15
574.733,867.6
574.867,868.3
575.001,869.65
575.135,867.875
575.269,868.95
575.403,870.675
575.537,879.425
575.671,886.25
575.806,881.75
575.94,881.725
576.074,888.975
576.208,897.925
576.342,902.325
576.476,898.675
576.61,893.05
576.744,893.25
576.878,890.65
577.012,889.725
577.146,887.775
577.28,882.225
577.414,880.15
577.548,876.2
577.682,874.1
577.817,873.45
577.951,872.425
578.085,872.425
578.219,871.975
578.353,872.45
578.486,870.0
578.62,871.625
578.754,870.4
578.888,871.075
579.022,871.25
579.156,870.125
579.29,870.9
579.424,871.65
579.558,870.725
579.692,871.25
579.826,873.75
579.96,873.05
580.094,872.425
580.228,873.175
580.362,871.9
580.496,871.425
580.629,874.075
580.763,874.075
580.897,871.75
581.031,872.325
581.165,872.35
581.299,871.5
581.433,873.275
581.566,873.225
581.7,873.0
581.834,873.425
581.968,873.175
582.102,874.825
582.236,871.7
582.369,873.45
582.503,872.0
582.637,873.55
582.771,873.825
582.905,873.65
583.038,873.5
583.172,874.15
583.306,873.3
583.44,873.025
583.573,872.975
583.707,874.175
583.841,874.5
583.975,875.675
584.108,874.3
584.242,875.3
584.376,873.85
584.509,874.1
584.643,873.85
584.777,873.75
584.911,874.0
585.044,873.275
585.178,874.675
585.312,875.575
585.445,875.55
585.579,875.4
585.713,874.35
585.846,874.325
585.98,876.425
586.113,877.05
586.247,875.05
586.381,874.775
586.514,877.2
586.648,876.1
586.782,876.675
586.915,877.0
587.049,876.125
587.182,876.5
587.316,877.3
587.45,879.175
587.583,876.85
587.717,878.15
587.85,877.925
587.984,876.725
588.117,876.0
588.251,876.575
588.384,877.0
588.518,876.375
588.651,875.2
588.785,877.15
588.919,876.075
589.052,875.85
589.186,877.2
589.319,878.625
589.453,878.125
589.586,877.4
589.72,877.35
589.853,878.275
589.986,878.8
590.12,877.1
590.253,878.475
590.387,878.575
590.52,880.2
590.654,880.925
590.787,881.35
590.921,880.4
591.054,880.925
591.187,881.775
591.321,881.275
591.454,881.825
591.588,881.25
591.721,881.875
591.854,880.9
591.988,880.525
592.121,882.425
592.255,882.025
592.388,882.55
592.521,883.125
592.655,882.725
592.788,884.6
592.921,882.225
593.055,882.875
593.188,882.625
593.321,882.75
593.455,883.475
593.588,885.15
593.721,885.625
593.855,883.975
593.988,884.65
594.121,884.175
594.255,883.375
594.388,884.75
594.521,884.225
594.654,886.225
594.788,885.4
594.921,886.225
595.054,886.275
595.187,885.2
595.321,888.65
595.454,886.225
595.587,888.275
595.72,887.425
595.854,887.25
595.987,889.7
596.12,888.975
596.253,889.3
596.387,890.225
596.52,889.4
596.653,888.325
596.786,889.175
596.919,888.975
597.052,889.625
597.186,890.45
597.319,890.425
597.452,890.625
597.585,891.175
597.718,889.65
597.851,891.2
597.985,891.7
598.118,891.925
598.251,893.425
598.384,892.75
598.517,893.675
598.65,893.3
598.783,893.5
598.916,893.55
599.049,893.4
599.183,895.825
599.316,895.675
599.449,894.65
599.582,895.275
599.715,895.375
599.848,895.325
599.981,894.75
600.114,895.55
600.247,896.4
600.38,893.775
600.513,894.8
600.646,894.375
600.779,894.7
600.912,893.525
601.045,895.9
601.178,894.1
601.311,894.2
601.444,894.85
601.577,894.25
601.71,894.55
601.843,893.65
601.976,895.125
602.109,897.05
602.242,895.5
602.375,895.025
602.508,895.725
602.641,893.725
602.774,893.325
602.907,895.8
603.04,894.9
603.173,894.625
603.306,895.1
603.439,894.8
603.572,892.9
603.705,894.675
603.838,893.35
603.971,895.35
604.103,893.75
604.236,893.725
604.369,892.725
604.502,894.2
604.635,893.4
604.768,893.45
604.901,891.7
605.034,890.75
605.167,890.625
605.299,890.775
605.432,891.45
605.565,890.45
605.698,890.8
605.831,891.975
605.964,889.85
606.096,890.9
606.229,889.2
606.362,890.275
606.495,888.325
606.628,888.775
606.761,888.1
606.893,888.675
607.026,890.1
607.159,889.95
607.292,888.25
607.425,889.575
607.557,889.4
607.69,889.075
607.823,886.275
607.956,888.0
608.088,886.85
608.221,888.7
608.354,887.825
608.487,888.075
608.619,888.475
608.752,886.675
608.885,888.5
609.018,888.75
609.15,888.45
609.283,887.425
609.416,887.575
609.548,888.7
609.681,888.525
609.814,889.675
609.947,887.525
610.079,887.55
610.212,887.05
610.345,887.0
610.477,887.2
610.61,887.725
610.743,888.15
610.875,887.475
611.008,888.5
611.141,886.325
611.273,887.7
611.406,889.3
611.539,886.65
611.671,888.225
611.804,887.2
611.936,885.45
612.069,886.275
612.202,886.65
612.334,887.15
612.467,887.35
612.6,887.65
612.732,885.9
612.865,888.25
612.997,887.05
613.13,887.05
613.263,889.85
613.395,888.4
613.528,888.325
613.66,886.875
613.793,887.7
613.925,888.4
614.058,888.15
614.19,888.1
614.323,889.55
614.456,886.575
614.588,888.55
614.721,887.825
614.853,887.85
614.986,888.15
615.118,888.125
615.251,887.525
615.383,886.9
615.516,885.525
615.648,886.625
615.781,887.525
615.913,886.5
616.046,888.725
616.178,886.825
616.311,887.025
616.443,888.075
616.576,887.25
616.708,886.35
616.841,886.275
616.973,887.25
617.106,889.4
617.238,887.075
617.37,888.1
617.503,886.65
617.635,889.875
617.768,888.55
617.9,887.6
618.033,887.875
618.165,890.025
618.297,888.875
618.43,888.1
618.562,888.1
618.695,887.85
618.827,886.925
618.96,887.8
619.092,887.6
619.224,888.775
619.357,888.875
619.489,886.5
619.621,888.95
619.754,889.15
619.886,889.2
620.019,888.075
620.151,885.775
620.283,889.175
620.416,887.575
620.548,889.5
620.68,889.075
620.813,888.8
620.945,889.275
621.077,888.975
621.21,889.825
621.342,891.125
621.474,890.975
621.607,891.05
621.739,893.45
621.871,893.925
622.004,895.65
622.136,897.3
622.268,898.375
622.401,897.6
622.533,896.95
622.665,894.35
622.797,894.375
622.93,892.8
623.062,888.525
623.194,889.4
623.326,887.125
623.459,888.175
623.591,888.2
623.723,886.7
623.856,886.375
623.988,886.675
624.12,886.475
624.252,885.475
624.384,884.8
624.517,887.65
624.649,886.25
624.781,888.875
624.913,888.1
625.046,885.95
625.178,887.875
625.31,886.175
625.442,888.275
625.574,888.625
625.707,888.0
625.839,889.45
625.971,891.05
626.103,892.95
626.235,895.25
626.368,898.85
626.5,902.825
626.632,912.175
626.764,930.675
626.896,964.05
627.028,1009.6
627.161,1059.03
627.293,1085.07
627.425,1077.05
627.557,1050.25
627.689,1024.65
627.821,1007.83
627.953,1000.67
628.086,994.0
628.218,997.975
628.35,1014.75
628.482,1056.72
628.614,1090.88
628.746,1064.95
628.878,1027.05
629.01,1015.55
629.143,1010.22
629.275,1003.63
629.407,998.375
629.539,988.375
629.671,979.45
629.803,971.275
629.935,967.45
630.067,964.3
630.199,960.625
630.331,962.45
630.463,960.675
630.596,955.775
630.728,947.675
630.86,940.8
630.992,927.325
631.124,914.725
631.256,904.675
631.388,900.55
631.52,897.325
631.652,894.15
631.784,895.0
631.916,890.525
632.048,889.4
632.18,887.425
632.312,886.5
632.444,886.025
632.576,886.825
632.708,884.225
632.84,882.475
632.972,883.35
633.104,883.3
633.236,882.55
633.368,881.775
633.5,880.9
633.632,881.525
633.764,881.425
633.896,882.175
634.028,880.275
634.16,879.925
634.292,881.375
634.424,880.3
634.556,880.0
634.688,879.825
634.82,880.6
634.952,879.35
635.084,880.875
635.216,879.7
635.348,880.2
635.48,879.375
635.612,880.5
635.744,879.25
635.876,879.0
636.007,878.4
636.139,877.65
636.271,878.6
636.403,878.475
636.535,878.825
636.667,879.85
636.799,878.55
636.931,879.35
637.063,878.725
637.195,878.325
637.327,878.95
637.459,878.55
637.59,877.95
637.722,878.075
637.854,877.125
637.986,876.15
638.118,878.275
638.25,876.925
638.382,878.45
638.514,878.75
638.645,877.5
638.777,876.35
638.909,877.325
639.041,877.65
639.173,876.825
639.305,877.125
639.437,876.95
639.568,877.625
639.7,876.7
639.832,878.225
639.964,875.775
640.096,876.025
640.228,877.3
640.36,875.3
640.491,877.325
640.623,876.825
640.755,875.925
640.887,877.825
641.019,876.0
641.15,877.0
641.282,877.525
641.414,876.875
641.546,876.0
641.678,876.775
641.81,876.65
641.941,876.225
642.073,876.5
642.205,877.125
642.337,877.675
642.468,877.25
642.6,876.875
642.732,875.625
642.864,876.275
642.996,874.875
643.127,874.825
643.259,874.525
643.391,876.425
643.523,875.15
643.654,876.0
643.786,875.3
643.918,873.575
644.05,874.85
644.181,874.5
644.313,874.25
644.445,877.0
644.577,876.425
644.708,875.975
644.84,874.625
644.972,875.1
645.104,874.2
645.235,874.9
645.367,874.725
645.499,874.775
645.631,874.65
645.762,874.075
645.894,873.6
646.026,874.225
646.157,874.15
646.289,873.4
646.421,875.025
646.553,874.225
646.684,874.7
646.816,874.1
646.948,872.725
647.079,873.875
647.211,873.7
647.343,874.675
647.474,872.95
647.606,874.0
647.738,874.55
647.869,873.575
648.001,873.425
648.133,873.675
648.265,873.1
648.396,873.5
648.528,874.625
648.66,875.5
648.791,874.7
648.923,874.575
649.054,873.95
649.186,873.95
649.318,872.75
649.449,872.525
649.581,873.7
649.713,874.525
649.844,873.975
649.976,873.025
650.108,874.55
650.239,874.325
650.371,873.6
650.503,872.95
650.634,874.5
650.766,875.1
650.897,872.6
651.029,874.725
651.161,873.5
651.292,872.625
651.424,872.975
651.556,873.6
651.687,872.3
651.819,872.55
651.95,873.5
652.082,874.3
652.214,875.425
652.345,874.075
652.477,873.675
652.608,874.225
652.74,874.375
652.872,874.225
653.003,875.225
653.135,873.075
653.266,873.95
653.398,874.025
653.529,874.65
653.661,872.55
653.793,874.05
653.924,875.125
654.056,875.175
654.187,873.7
654.319,873.3
654.45,872.225
654.582,873.725
654.714,873.55
654.845,873.475
654.977,872.675
655.108,873.6
655.24,873.425
655.371,872.95
655.503,872.975
655.634,873.0
655.766,871.7
655.897,873.525
656.029,871.625
656.161,871.125
656.292,868.05
656.424,871.4
656.555,872.375
656.687,870.875
656.818,873.45
656.95,872.525
657.081,872.225
657.213,872.325
657.344,872.875
657.476,873.85
657.607,872.85
657.739,873.35
657.87,873.575
658.002,872.175
658.133,873.3
658.265,872.725
658.396,873.0
658.528,872.35
658.659,871.95
658.791,871.0
658.922,872.05
659.054,873.3
659.185,872.375
659.317,873.45
659.448,872.575
659.58,871.95
659.711,872.775
659.843,872.675
659.974,872.25
660.106,871.1
660.237,871.225
660.368,871.575
660.5,871.95
660.631,871.8
660.763,870.75
660.894,870.925
661.026,870.7
661.157,869.45
661.289,871.525
661.42,870.9
661.552,870.15
661.683,869.025
661.815,869.0
661.946,871.4
662.077,871.05
662.209,869.925
662.34,870.375
662.472,869.075
662.603,869.575
662.735,868.75
662.866,870.375
662.997,868.7
663.129,869.575
