cm-1,A
4000.0,0.0013
3999.0,0.0012
3998.0,0.0012
3997.0,0.0011
3996.0,0.0012
3995.0,0.0012
3994.0,0.0013
3993.0,0.0013
3992.0,0.0012
3991.0,0.0012
3990.0,0.0012
3989.0,0.0012
3988.0,0.0013
3987.0,0.0014
3986.0,0.0015
3985.0,0.0016
3984.0,0.0016
3983.0,0.0015
3982.0,0.0015
3981.0,0.0014
3980.0,0.0014
3979.0,0.0014
3978.0,0.0014
3977.0,0.0014
3976.0,0.0013
3975.0,0.0013
3974.0,0.0013
3973.0,0.0014
3972.0,0.0014
3971.0,0.0015
3970.0,0.0015
3969.0,0.0014
3968.0,0.0014
3967.0,0.0014
3966.0,0.0014
3965.0,0.0014
3964.0,0.0014
3963.0,0.0015
3962.0,0.0015
3961.0,0.0016
3960.0,0.0016
3959.0,0.0016
3958.0,0.0015
3957.0,0.0015
3956.0,0.0014
3955.0,0.0013
3954.0,0.0014
3953.0,0.0015
3952.0,0.0015
3951.0,0.0016
3950.0,0.0016
3949.0,0.0016
3948.0,0.0015
3947.0,0.0015
3946.0,0.0015
3945.0,0.0015
3944.0,0.0016
3943.0,0.0017
3942.0,0.0017
3941.0,0.0017
3940.0,0.0017
3939.0,0.0016
3938.0,0.0015
3937.0,0.0014
3936.0,0.0014
3935.0,0.0014
3934.0,0.0015
3933.0,0.0015
3932.0,0.0016
3931.0,0.0016
3930.0,0.0017
3929.0,0.0017
3928.0,0.0017
3927.0,0.0017
3926.0,0.0018
3925.0,0.0018
3924.0,0.0018
3923.0,0.0018
3922.0,0.0018
3921.0,0.0017
3920.0,0.0016
3919.0,0.0015
3918.0,0.0015
3917.0,0.0015
3916.0,0.0015
3915.0,0.0015
3914.0,0.0016
3913.0,0.0016
3912.0,0.0015
3911.0,0.0016
3910.0,0.0016
3909.0,0.0017
3908.0,0.0018
3907.0,0.0019
3906.0,0.0018
3905.0,0.0017
3904.0,0.0016
3903.0,0.0015
3902.0,0.0016
3901.0,0.0016
3900.0,0.0017
3899.0,0.0017
3898.0,0.0016
3897.0,0.0016
3896.0,0.0016
3895.0,0.0015
3894.0,0.0015
3893.0,0.0015
3892.0,0.0015
3891.0,0.0015
3890.0,0.0015
3889.0,0.0016
3888.0,0.0017
3887.0,0.0018
3886.0,0.0017
3885.0,0.0017
3884.0,0.0019
3883.0,0.0021
3882.0,0.0023
3881.0,0.0023
3880.0,0.0022
3879.0,0.002
3878.0,0.002
3877.0,0.0021
3876.0,0.0023
3875.0,0.0023
3874.0,0.0022
3873.0,0.0021
3872.0,0.002
3871.0,0.002
3870.0,0.0019
3869.0,0.0018
3868.0,0.0018
3867.0,0.0019
3866.0,0.0019
3865.0,0.0019
3864.0,0.0019
3863.0,0.002
3862.0,0.002
3861.0,0.002
3860.0,0.0019
3859.0,0.0019
3858.0,0.0017
3857.0,0.0017
3856.0,0.0018
3855.0,0.002
3854.0,0.002
3853.0,0.0019
3852.0,0.0018
3851.0,0.0018
3850.0,0.0019
3849.0,0.0018
3848.0,0.0018
3847.0,0.0019
3846.0,0.0019
3845.0,0.0021
3844.0,0.0022
3843.0,0.0023
3842.0,0.0024
3841.0,0.0024
3840.0,0.0023
3839.0,0.0023
3838.0,0.0022
3837.0,0.0022
3836.0,0.0021
3835.0,0.002
3834.0,0.002
3833.0,0.002
3832.0,0.002
3831.0,0.002
3830.0,0.0021
3829.0,0.0021
3828.0,0.0021
3827.0,0.0021
3826.0,0.002
3825.0,0.002
3824.0,0.0021
3823.0,0.0023
3822.0,0.0023
3821.0,0.0022
3820.0,0.002
3819.0,0.0019
3818.0,0.0019
3817.0,0.0019
3816.0,0.0019
3815.0,0.0019
3814.0,0.0019
3813.0,0.0019
3812.0,0.0019
3811.0,0.0018
3810.0,0.0018
3809.0,0.0019
3808.0,0.002
3807.0,0.002
3806.0,0.0021
3805.0,0.0022
3804.0,0.0025
3803.0,0.0026
3802.0,0.0025
3801.0,0.0024
3800.0,0.0023
3799.0,0.0022
3798.0,0.0022
3797.0,0.002
3796.0,0.0019
3795.0,0.0019
3794.0,0.0019
3793.0,0.0019
3792.0,0.0019
3791.0,0.0018
3790.0,0.0018
3789.0,0.0018
3788.0,0.0019
3787.0,0.002
3786.0,0.0021
3785.0,0.0022
3784.0,0.0022
3783.0,0.0023
3782.0,0.0024
3781.0,0.0025
3780.0,0.0024
3779.0,0.0022
3778.0,0.0021
3777.0,0.002
3776.0,0.0019
3775.0,0.0018
3774.0,0.0018
3773.0,0.0018
3772.0,0.0017
3771.0,0.0017
3770.0,0.0016
3769.0,0.0017
3768.0,0.0018
3767.0,0.0019
3766.0,0.002
3765.0,0.002
3764.0,0.0021
3763.0,0.0022
3762.0,0.0023
3761.0,0.0023
3760.0,0.0023
3759.0,0.0023
3758.0,0.0022
3757.0,0.0021
3756.0,0.0019
3755.0,0.0018
3754.0,0.0017
3753.0,0.0015
3752.0,0.0013
3751.0,0.0013
3750.0,0.0014
3749.0,0.0014
3748.0,0.0015
3747.0,0.0016
3746.0,0.0017
3745.0,0.0018
3744.0,0.0017
3743.0,0.0016
3742.0,0.0017
3741.0,0.0017
3740.0,0.0016
3739.0,0.0016
3738.0,0.0016
3737.0,0.0015
3736.0,0.0013
3735.0,0.0011
3734.0,0.001
3733.0,0.0009
3732.0,0.0008
3731.0,0.0007
3730.0,0.0007
3729.0,0.0007
3728.0,0.0006
3727.0,0.0006
3726.0,0.0006
3725.0,0.0009
3724.0,0.0011
3723.0,0.0012
3722.0,0.0012
3721.0,0.0012
3720.0,0.0013
3719.0,0.0014
3718.0,0.0015
3717.0,0.0014
3716.0,0.0014
3715.0,0.0014
3714.0,0.0015
3713.0,0.0013
3712.0,0.0011
3711.0,0.001
3710.0,0.001
3709.0,0.001
3708.0,0.0009
3707.0,0.0009
3706.0,0.0009
3705.0,0.001
3704.0,0.0012
3703.0,0.0014
3702.0,0.0016
3701.0,0.0016
3700.0,0.0015
3699.0,0.0014
3698.0,0.0013
3697.0,0.0013
3696.0,0.0013
3695.0,0.0014
3694.0,0.0015
3693.0,0.0016
3692.0,0.0017
3691.0,0.0018
3690.0,0.0018
3689.0,0.0018
3688.0,0.0017
3687.0,0.0016
3686.0,0.0016
3685.0,0.0016
3684.0,0.0017
3683.0,0.0018
3682.0,0.0019
3681.0,0.0021
3680.0,0.0021
3679.0,0.0021
3678.0,0.0023
3677.0,0.0025
3676.0,0.0026
3675.0,0.0026
3674.0,0.0025
3673.0,0.0024
3672.0,0.0023
3671.0,0.0022
3670.0,0.0021
3669.0,0.0021
3668.0,0.0021
3667.0,0.002
3666.0,0.002
3665.0,0.0021
3664.0,0.0021
3663.0,0.0021
3662.0,0.0021
3661.0,0.0021
3660.0,0.0021
3659.0,0.002
3658.0,0.002
3657.0,0.002
3656.0,0.0021
3655.0,0.0022
3654.0,0.0024
3653.0,0.0026
3652.0,0.0028
3651.0,0.0027
3650.0,0.0027
3649.0,0.0029
3648.0,0.003
3647.0,0.0029
3646.0,0.0027
3645.0,0.0025
3644.0,0.0024
3643.0,0.0023
3642.0,0.0023
3641.0,0.0023
3640.0,0.0023
3639.0,0.0023
3638.0,0.0024
3637.0,0.0024
3636.0,0.0025
3635.0,0.0024
3634.0,0.0023
3633.0,0.0021
3632.0,0.002
3631.0,0.0019
3630.0,0.0018
3629.0,0.0017
3628.0,0.0018
3627.0,0.0019
3626.0,0.002
3625.0,0.0021
3624.0,0.0022
3623.0,0.0023
3622.0,0.0025
3621.0,0.0027
3620.0,0.0029
3619.0,0.0031
3618.0,0.0033
3617.0,0.0034
3616.0,0.0035
3615.0,0.0035
3614.0,0.0032
3613.0,0.0028
3612.0,0.0025
3611.0,0.0023
3610.0,0.0022
3609.0,0.0023
3608.0,0.0024
3607.0,0.0026
3606.0,0.0028
3605.0,0.003
3604.0,0.0031
3603.0,0.0031
3602.0,0.0031
3601.0,0.003
3600.0,0.003
3599.0,0.0031
3598.0,0.0031
3597.0,0.0031
3596.0,0.0031
3595.0,0.0032
3594.0,0.0033
3593.0,0.0035
3592.0,0.0036
3591.0,0.0037
3590.0,0.0038
3589.0,0.0039
3588.0,0.004
3587.0,0.004
3586.0,0.004
3585.0,0.004
3584.0,0.004
3583.0,0.0039
3582.0,0.004
3581.0,0.0041
3580.0,0.0042
3579.0,0.0043
3578.0,0.0043
3577.0,0.0043
3576.0,0.0043
3575.0,0.0044
3574.0,0.0044
3573.0,0.0045
3572.0,0.0045
3571.0,0.0046
3570.0,0.0047
3569.0,0.0048
3568.0,0.0049
3567.0,0.005
3566.0,0.0051
3565.0,0.0052
3564.0,0.0052
3563.0,0.0052
3562.0,0.0053
3561.0,0.0053
3560.0,0.0052
3559.0,0.0052
3558.0,0.0052
3557.0,0.0052
3556.0,0.0053
3555.0,0.0054
3554.0,0.0056
3553.0,0.0057
3552.0,0.0059
3551.0,0.0059
3550.0,0.0058
3549.0,0.0058
3548.0,0.0057
3547.0,0.0058
3546.0,0.0058
3545.0,0.0059
3544.0,0.006
3543.0,0.0061
3542.0,0.0062
3541.0,0.0062
3540.0,0.0063
3539.0,0.0063
3538.0,0.0062
3537.0,0.0062
3536.0,0.0061
3535.0,0.0061
3534.0,0.0061
3533.0,0.0062
3532.0,0.0064
3531.0,0.0065
3530.0,0.0066
3529.0,0.0067
3528.0,0.0067
3527.0,0.0067
3526.0,0.0067
3525.0,0.0067
3524.0,0.0066
3523.0,0.0067
3522.0,0.0067
3521.0,0.0067
3520.0,0.0067
3519.0,0.0067
3518.0,0.0066
3517.0,0.0066
3516.0,0.0066
3515.0,0.0066
3514.0,0.0067
3513.0,0.0068
3512.0,0.0069
3511.0,0.0069
3510.0,0.0069
3509.0,0.0069
3508.0,0.0068
3507.0,0.0068
3506.0,0.0068
3505.0,0.0067
3504.0,0.0067
3503.0,0.0067
3502.0,0.0067
3501.0,0.0067
3500.0,0.0067
3499.0,0.0067
3498.0,0.0066
3497.0,0.0066
3496.0,0.0065
3495.0,0.0065
3494.0,0.0066
3493.0,0.0067
3492.0,0.0067
3491.0,0.0067
3490.0,0.0066
3489.0,0.0066
3488.0,0.0066
3487.0,0.0067
3486.0,0.0068
3485.0,0.0069
3484.0,0.0069
3483.0,0.0069
3482.0,0.0068
3481.0,0.0068
3480.0,0.0068
3479.0,0.0068
3478.0,0.0069
3477.0,0.0069
3476.0,0.007
3475.0,0.007
3474.0,0.007
3473.0,0.0069
3472.0,0.0069
3471.0,0.0068
3470.0,0.0067
3469.0,0.0067
3468.0,0.0067
3467.0,0.0067
3466.0,0.0067
3465.0,0.0068
3464.0,0.0068
3463.0,0.0068
3462.0,0.0068
3461.0,0.0069
3460.0,0.0069
3459.0,0.007
3458.0,0.0069
3457.0,0.0069
3456.0,0.0069
3455.0,0.0069
3454.0,0.0069
3453.0,0.0069
3452.0,0.007
3451.0,0.007
3450.0,0.0071
3449.0,0.0072
3448.0,0.0073
3447.0,0.0074
3446.0,0.0074
3445.0,0.0073
3444.0,0.0073
3443.0,0.0072
3442.0,0.0072
3441.0,0.0072
3440.0,0.0072
3439.0,0.0072
3438.0,0.0073
3437.0,0.0073
3436.0,0.0074
3435.0,0.0075
3434.0,0.0076
3433.0,0.0077
3432.0,0.0078
3431.0,0.0079
3430.0,0.0079
3429.0,0.0079
3428.0,0.0079
3427.0,0.0078
3426.0,0.0079
3425.0,0.0079
3424.0,0.008
3423.0,0.0081
3422.0,0.0082
3421.0,0.0083
3420.0,0.0083
3419.0,0.0083
3418.0,0.0083
3417.0,0.0084
3416.0,0.0084
3415.0,0.0084
3414.0,0.0083
3413.0,0.0083
3412.0,0.0082
3411.0,0.0083
3410.0,0.0084
3409.0,0.0085
3408.0,0.0086
3407.0,0.0087
3406.0,0.0088
3405.0,0.0088
3404.0,0.0089
3403.0,0.0088
3402.0,0.0088
3401.0,0.0088
3400.0,0.0087
3399.0,0.0087
3398.0,0.0087
3397.0,0.0087
3396.0,0.0086
3395.0,0.0086
3394.0,0.0086
3393.0,0.0086
3392.0,0.0086
3391.0,0.0085
3390.0,0.0084
3389.0,0.0083
3388.0,0.0082
3387.0,0.0083
3386.0,0.0083
3385.0,0.0083
3384.0,0.0083
3383.0,0.0082
3382.0,0.0081
3381.0,0.008
3380.0,0.008
3379.0,0.008
3378.0,0.0079
3377.0,0.0079
3376.0,0.0078
3375.0,0.0078
3374.0,0.0078
3373.0,0.0077
3372.0,0.0077
3371.0,0.0077
3370.0,0.0077
3369.0,0.0077
3368.0,0.0077
3367.0,0.0077
3366.0,0.0077
3365.0,0.0077
3364.0,0.0076
3363.0,0.0076
3362.0,0.0075
3361.0,0.0075
3360.0,0.0074
3359.0,0.0073
3358.0,0.0073
3357.0,0.0072
3356.0,0.0072
3355.0,0.0072
3354.0,0.0072
3353.0,0.0072
3352.0,0.0071
3351.0,0.007
3350.0,0.0069
3349.0,0.0069
3348.0,0.007
3347.0,0.0072
3346.0,0.0073
3345.0,0.0074
3344.0,0.0074
3343.0,0.0074
3342.0,0.0073
3341.0,0.0071
3340.0,0.0071
3339.0,0.0071
3338.0,0.0072
3337.0,0.0072
3336.0,0.0073
3335.0,0.0073
3334.0,0.0072
3333.0,0.0072
3332.0,0.0071
3331.0,0.0072
3330.0,0.0072
3329.0,0.0071
3328.0,0.007
3327.0,0.0069
3326.0,0.0069
3325.0,0.007
3324.0,0.007
3323.0,0.007
3322.0,0.007
3321.0,0.007
3320.0,0.007
3319.0,0.007
3318.0,0.007
3317.0,0.007
3316.0,0.007
3315.0,0.007
3314.0,0.0069
3313.0,0.0069
3312.0,0.0068
3311.0,0.0068
3310.0,0.0067
3309.0,0.0067
3308.0,0.0067
3307.0,0.0067
3306.0,0.0068
3305.0,0.0069
3304.0,0.0071
3303.0,0.0071
3302.0,0.007
3301.0,0.0069
3300.0,0.0068
3299.0,0.0068
3298.0,0.0067
3297.0,0.0067
3296.0,0.0065
3295.0,0.0065
3294.0,0.0064
3293.0,0.0065
3292.0,0.0066
3291.0,0.0067
3290.0,0.0068
3289.0,0.0068
3288.0,0.0067
3287.0,0.0066
3286.0,0.0064
3285.0,0.0063
3284.0,0.0063
3283.0,0.0063
3282.0,0.0064
3281.0,0.0065
3280.0,0.0067
3279.0,0.0068
3278.0,0.0068
3277.0,0.0066
3276.0,0.0065
3275.0,0.0064
3274.0,0.0064
3273.0,0.0064
3272.0,0.0064
3271.0,0.0064
3270.0,0.0063
3269.0,0.0063
3268.0,0.0063
3267.0,0.0064
3266.0,0.0064
3265.0,0.0064
3264.0,0.0064
3263.0,0.0064
3262.0,0.0063
3261.0,0.0063
3260.0,0.0063
3259.0,0.0064
3258.0,0.0065
3257.0,0.0065
3256.0,0.0065
3255.0,0.0065
3254.0,0.0064
3253.0,0.0064
3252.0,0.0063
3251.0,0.0064
3250.0,0.0064
3249.0,0.0064
3248.0,0.0063
3247.0,0.0062
3246.0,0.0061
3245.0,0.0062
3244.0,0.0063
3243.0,0.0065
3242.0,0.0066
3241.0,0.0067
3240.0,0.0067
3239.0,0.0066
3238.0,0.0065
3237.0,0.0064
3236.0,0.0063
3235.0,0.0062
3234.0,0.0062
3233.0,0.0062
3232.0,0.0061
3231.0,0.0062
3230.0,0.0062
3229.0,0.0062
3228.0,0.0062
3227.0,0.0062
3226.0,0.0061
3225.0,0.0062
3224.0,0.0061
3223.0,0.006
3222.0,0.0059
3221.0,0.0058
3220.0,0.0058
3219.0,0.006
3218.0,0.0061
3217.0,0.0063
3216.0,0.0063
3215.0,0.0063
3214.0,0.0062
3213.0,0.0061
3212.0,0.006
3211.0,0.006
3210.0,0.0059
3209.0,0.0059
3208.0,0.006
3207.0,0.006
3206.0,0.006
3205.0,0.0059
3204.0,0.0058
3203.0,0.0057
3202.0,0.0057
3201.0,0.0057
3200.0,0.0057
3199.0,0.0057
3198.0,0.0057
3197.0,0.0057
3196.0,0.0057
3195.0,0.0058
3194.0,0.0058
3193.0,0.0059
3192.0,0.006
3191.0,0.006
3190.0,0.006
3189.0,0.006
3188.0,0.0059
3187.0,0.0058
3186.0,0.0057
3185.0,0.0057
3184.0,0.0056
3183.0,0.0056
3182.0,0.0056
3181.0,0.0056
3180.0,0.0057
3179.0,0.0058
3178.0,0.0059
3177.0,0.006
3176.0,0.006
3175.0,0.0059
3174.0,0.0059
3173.0,0.0058
3172.0,0.0057
3171.0,0.0056
3170.0,0.0056
3169.0,0.0055
3168.0,0.0055
3167.0,0.0055
3166.0,0.0055
3165.0,0.0055
3164.0,0.0056
3163.0,0.0056
3162.0,0.0057
3161.0,0.0057
3160.0,0.0058
3159.0,0.0057
3158.0,0.0057
3157.0,0.0056
3156.0,0.0055
3155.0,0.0055
3154.0,0.0055
3153.0,0.0055
3152.0,0.0055
3151.0,0.0054
3150.0,0.0054
3149.0,0.0055
3148.0,0.0055
3147.0,0.0055
3146.0,0.0055
3145.0,0.0056
3144.0,0.0056
3143.0,0.0056
3142.0,0.0055
3141.0,0.0054
3140.0,0.0053
3139.0,0.0053
3138.0,0.0053
3137.0,0.0053
3136.0,0.0054
3135.0,0.0054
3134.0,0.0055
3133.0,0.0055
3132.0,0.0055
3131.0,0.0054
3130.0,0.0054
3129.0,0.0054
3128.0,0.0054
3127.0,0.0054
3126.0,0.0055
3125.0,0.0055
3124.0,0.0055
3123.0,0.0054
3122.0,0.0053
3121.0,0.0053
3120.0,0.0053
3119.0,0.0054
3118.0,0.0054
3117.0,0.0055
3116.0,0.0055
3115.0,0.0056
3114.0,0.0056
3113.0,0.0056
3112.0,0.0056
3111.0,0.0055
3110.0,0.0054
3109.0,0.0054
3108.0,0.0054
3107.0,0.0054
3106.0,0.0054
3105.0,0.0054
3104.0,0.0054
3103.0,0.0054
3102.0,0.0054
3101.0,0.0054
3100.0,0.0054
3099.0,0.0054
3098.0,0.0055
3097.0,0.0055
3096.0,0.0056
3095.0,0.0056
3094.0,0.0055
3093.0,0.0055
3092.0,0.0055
3091.0,0.0055
3090.0,0.0055
3089.0,0.0055
3088.0,0.0055
3087.0,0.0056
3086.0,0.0057
3085.0,0.0057
3084.0,0.0057
3083.0,0.0057
3082.0,0.0056
3081.0,0.0055
3080.0,0.0055
3079.0,0.0055
3078.0,0.0055
3077.0,0.0055
3076.0,0.0054
3075.0,0.0054
3074.0,0.0054
3073.0,0.0054
3072.0,0.0055
3071.0,0.0055
3070.0,0.0056
3069.0,0.0056
3068.0,0.0055
3067.0,0.0055
3066.0,0.0054
3065.0,0.0054
3064.0,0.0054
3063.0,0.0055
3062.0,0.0055
3061.0,0.0054
3060.0,0.0054
3059.0,0.0055
3058.0,0.0055
3057.0,0.0056
3056.0,0.0056
3055.0,0.0055
3054.0,0.0055
3053.0,0.0055
3052.0,0.0055
3051.0,0.0055
3050.0,0.0055
3049.0,0.0055
3048.0,0.0055
3047.0,0.0054
3046.0,0.0053
3045.0,0.0053
3044.0,0.0053
3043.0,0.0053
3042.0,0.0052
3041.0,0.0052
3040.0,0.0051
3039.0,0.005
3038.0,0.0049
3037.0,0.0049
3036.0,0.005
3035.0,0.0051
3034.0,0.0051
3033.0,0.0052
3032.0,0.0051
3031.0,0.0051
3030.0,0.0051
3029.0,0.0051
3028.0,0.0051
3027.0,0.0051
3026.0,0.0051
3025.0,0.0052
3024.0,0.0052
3023.0,0.0052
3022.0,0.0052
3021.0,0.0053
3020.0,0.0054
3019.0,0.0054
3018.0,0.0054
3017.0,0.0054
3016.0,0.0053
3015.0,0.0052
3014.0,0.0052
3013.0,0.0053
3012.0,0.0053
3011.0,0.0053
3010.0,0.0053
3009.0,0.0053
3008.0,0.0053
3007.0,0.0053
3006.0,0.0053
3005.0,0.0053
3004.0,0.0054
3003.0,0.0054
3002.0,0.0054
3001.0,0.0055
3000.0,0.0055
2999.0,0.0056
2998.0,0.0056
2997.0,0.0056
2996.0,0.0055
2995.0,0.0055
2994.0,0.0055
2993.0,0.0055
2992.0,0.0056
2991.0,0.0057
2990.0,0.0057
2989.0,0.0058
2988.0,0.0058
2987.0,0.0058
2986.0,0.0058
2985.0,0.0058
2984.0,0.0058
2983.0,0.0059
2982.0,0.006
2981.0,0.0062
2980.0,0.0062
2979.0,0.0063
2978.0,0.0063
2977.0,0.0064
2976.0,0.0066
2975.0,0.0068
2974.0,0.0069
2973.0,0.007
2972.0,0.007
2971.0,0.007
2970.0,0.007
2969.0,0.007
2968.0,0.007
2967.0,0.007
2966.0,0.0071
2965.0,0.0073
2964.0,0.0074
2963.0,0.0074
2962.0,0.0074
2961.0,0.0074
2960.0,0.0074
2959.0,0.0075
2958.0,0.0075
2957.0,0.0074
2956.0,0.0073
2955.0,0.0073
2954.0,0.0072
2953.0,0.0072
2952.0,0.0072
2951.0,0.0071
2950.0,0.0071
2949.0,0.007
2948.0,0.007
2947.0,0.0069
2946.0,0.0069
2945.0,0.0068
2944.0,0.0068
2943.0,0.0067
2942.0,0.0067
2941.0,0.0067
2940.0,0.0066
2939.0,0.0065
2938.0,0.0065
2937.0,0.0064
2936.0,0.0064
2935.0,0.0063
2934.0,0.0063
2933.0,0.0063
2932.0,0.0063
2931.0,0.0062
2930.0,0.0062
2929.0,0.0061
2928.0,0.0061
2927.0,0.0061
2926.0,0.0061
2925.0,0.0061
2924.0,0.0061
2923.0,0.0062
2922.0,0.0062
2921.0,0.0061
2920.0,0.0061
2919.0,0.006
2918.0,0.006
2917.0,0.0061
2916.0,0.0061
2915.0,0.0062
2914.0,0.0062
2913.0,0.0062
2912.0,0.0063
2911.0,0.0064
2910.0,0.0066
2909.0,0.0067
2908.0,0.0067
2907.0,0.0067
2906.0,0.0067
2905.0,0.0067
2904.0,0.0066
2903.0,0.0066
2902.0,0.0065
2901.0,0.0065
2900.0,0.0064
2899.0,0.0064
2898.0,0.0064
2897.0,0.0063
2896.0,0.0063
2895.0,0.0063
2894.0,0.0062
2893.0,0.0062
2892.0,0.0062
2891.0,0.0062
2890.0,0.0062
2889.0,0.0062
2888.0,0.0062
2887.0,0.0062
2886.0,0.0062
2885.0,0.0062
2884.0,0.0062
2883.0,0.0062
2882.0,0.0062
2881.0,0.0062
2880.0,0.0062
2879.0,0.0062
2878.0,0.0062
2877.0,0.0062
2876.0,0.0062
2875.0,0.0061
2874.0,0.0061
2873.0,0.0061
2872.0,0.0061
2871.0,0.0061
2870.0,0.0061
2869.0,0.0061
2868.0,0.0061
2867.0,0.0061
2866.0,0.0061
2865.0,0.0061
2864.0,0.0062
2863.0,0.0063
2862.0,0.0063
2861.0,0.0063
2860.0,0.0063
2859.0,0.0063
2858.0,0.0062
2857.0,0.0061
2856.0,0.0061
2855.0,0.0062
2854.0,0.0062
2853.0,0.0063
2852.0,0.0063
2851.0,0.0063
2850.0,0.0062
2849.0,0.0061
2848.0,0.006
2847.0,0.006
2846.0,0.006
2845.0,0.006
2844.0,0.006
2843.0,0.0059
2842.0,0.0059
2841.0,0.0058
2840.0,0.0058
2839.0,0.0058
2838.0,0.0058
2837.0,0.0057
2836.0,0.0057
2835.0,0.0058
2834.0,0.0058
2833.0,0.0058
2832.0,0.0058
2831.0,0.0057
2830.0,0.0057
2829.0,0.0057
2828.0,0.0057
2827.0,0.0057
2826.0,0.0058
2825.0,0.0058
2824.0,0.0059
2823.0,0.0058
2822.0,0.0058
2821.0,0.0057
2820.0,0.0056
2819.0,0.0056
2818.0,0.0056
2817.0,0.0056
2816.0,0.0057
2815.0,0.0057
2814.0,0.0057
2813.0,0.0056
2812.0,0.0056
2811.0,0.0056
2810.0,0.0057
2809.0,0.0057
2808.0,0.0058
2807.0,0.0058
2806.0,0.0058
2805.0,0.0057
2804.0,0.0057
2803.0,0.0057
2802.0,0.0057
2801.0,0.0057
2800.0,0.0057
2799.0,0.0057
2798.0,0.0057
2797.0,0.0057
2796.0,0.0057
2795.0,0.0057
2794.0,0.0057
2793.0,0.0057
2792.0,0.0057
2791.0,0.0056
2790.0,0.0055
2789.0,0.0056
2788.0,0.0056
2787.0,0.0057
2786.0,0.0057
2785.0,0.0057
2784.0,0.0056
2783.0,0.0056
2782.0,0.0056
2781.0,0.0056
2780.0,0.0056
2779.0,0.0056
2778.0,0.0056
2777.0,0.0056
2776.0,0.0056
2775.0,0.0056
2774.0,0.0056
2773.0,0.0056
2772.0,0.0056
2771.0,0.0056
2770.0,0.0056
2769.0,0.0056
2768.0,0.0056
2767.0,0.0056
2766.0,0.0056
2765.0,0.0056
2764.0,0.0056
2763.0,0.0056
2762.0,0.0056
2761.0,0.0056
2760.0,0.0056
2759.0,0.0056
2758.0,0.0056
2757.0,0.0057
2756.0,0.0057
2755.0,0.0057
2754.0,0.0057
2753.0,0.0056
2752.0,0.0056
2751.0,0.0055
2750.0,0.0055
2749.0,0.0054
2748.0,0.0054
2747.0,0.0055
2746.0,0.0055
2745.0,0.0056
2744.0,0.0056
2743.0,0.0056
2742.0,0.0056
2741.0,0.0056
2740.0,0.0056
2739.0,0.0056
2738.0,0.0056
2737.0,0.0055
2736.0,0.0055
2735.0,0.0055
2734.0,0.0055
2733.0,0.0055
2732.0,0.0056
2731.0,0.0056
2730.0,0.0056
2729.0,0.0056
2728.0,0.0056
2727.0,0.0056
2726.0,0.0056
2725.0,0.0055
2724.0,0.0055
2723.0,0.0054
2722.0,0.0055
2721.0,0.0055
2720.0,0.0056
2719.0,0.0056
2718.0,0.0057
2717.0,0.0056
2716.0,0.0056
2715.0,0.0055
2714.0,0.0055
2713.0,0.0055
2712.0,0.0055
2711.0,0.0055
2710.0,0.0055
2709.0,0.0055
2708.0,0.0056
2707.0,0.0056
2706.0,0.0056
2705.0,0.0055
2704.0,0.0055
2703.0,0.0055
2702.0,0.0055
2701.0,0.0055
2700.0,0.0055
2699.0,0.0054
2698.0,0.0054
2697.0,0.0054
2696.0,0.0054
2695.0,0.0054
2694.0,0.0054
2693.0,0.0055
2692.0,0.0055
2691.0,0.0056
2690.0,0.0056
2689.0,0.0056
2688.0,0.0056
2687.0,0.0056
2686.0,0.0056
2685.0,0.0056
2684.0,0.0056
2683.0,0.0055
2682.0,0.0056
2681.0,0.0056
2680.0,0.0056
2679.0,0.0056
2678.0,0.0056
2677.0,0.0056
2676.0,0.0056
2675.0,0.0056
2674.0,0.0056
2673.0,0.0056
2672.0,0.0055
2671.0,0.0055
2670.0,0.0055
2669.0,0.0055
2668.0,0.0055
2667.0,0.0055
2666.0,0.0054
2665.0,0.0054
2664.0,0.0055
2663.0,0.0055
2662.0,0.0056
2661.0,0.0056
2660.0,0.0055
2659.0,0.0054
2658.0,0.0054
2657.0,0.0054
2656.0,0.0054
2655.0,0.0055
2654.0,0.0055
2653.0,0.0055
2652.0,0.0055
2651.0,0.0055
2650.0,0.0054
2649.0,0.0054
2648.0,0.0054
2647.0,0.0054
2646.0,0.0053
2645.0,0.0053
2644.0,0.0053
2643.0,0.0053
2642.0,0.0053
2641.0,0.0053
2640.0,0.0053
2639.0,0.0053
2638.0,0.0053
2637.0,0.0053
2636.0,0.0053
2635.0,0.0053
2634.0,0.0052
2633.0,0.0053
2632.0,0.0053
2631.0,0.0053
2630.0,0.0054
2629.0,0.0054
2628.0,0.0054
2627.0,0.0054
2626.0,0.0054
2625.0,0.0054
2624.0,0.0054
2623.0,0.0055
2622.0,0.0055
2621.0,0.0055
2620.0,0.0055
2619.0,0.0054
2618.0,0.0054
2617.0,0.0054
2616.0,0.0054
2615.0,0.0054
2614.0,0.0054
2613.0,0.0055
2612.0,0.0055
2611.0,0.0055
2610.0,0.0055
2609.0,0.0055
2608.0,0.0054
2607.0,0.0054
2606.0,0.0054
2605.0,0.0054
2604.0,0.0053
2603.0,0.0053
2602.0,0.0054
2601.0,0.0054
2600.0,0.0055
2599.0,0.0055
2598.0,0.0055
2597.0,0.0055
2596.0,0.0054
2595.0,0.0054
2594.0,0.0054
2593.0,0.0054
2592.0,0.0055
2591.0,0.0055
2590.0,0.0055
2589.0,0.0055
2588.0,0.0055
2587.0,0.0055
2586.0,0.0055
2585.0,0.0055
2584.0,0.0054
2583.0,0.0055
2582.0,0.0055
2581.0,0.0054
2580.0,0.0054
2579.0,0.0054
2578.0,0.0053
2577.0,0.0054
2576.0,0.0054
2575.0,0.0054
2574.0,0.0055
2573.0,0.0055
2572.0,0.0055
2571.0,0.0055
2570.0,0.0055
2569.0,0.0054
2568.0,0.0054
2567.0,0.0055
2566.0,0.0055
