cm-1,Intensity
-123.878,1853.15
-120.866,1853.55
-117.855,1851.95
-114.845,1852.55
-111.836,1852.85
-108.828,1852.7
-105.821,1852.2
-102.815,1853.1
-99.8104,1853.25
-96.8065,1852.45
-93.8036,1852.75
-90.8016,1854.15
-87.8007,1852.65
-84.8008,1853.65
-81.8019,1853.55
-78.8039,1851.45
-75.807,1853.75
-72.8111,1853.6
-69.8161,1853.6
-66.8222,1852.8
-63.8293,1853.6
-60.8373,1854.1
-57.8464,1852.85
-54.8564,1853.15
-51.8675,1853.3
-48.8795,1855.5
-45.8926,1854.2
-42.9066,1854.1
-39.9216,1855.3
-36.9377,1855.7
-33.9547,1854.05
-30.9727,1857.05
-27.9917,1856.1
-25.0117,1857.0
-22.0326,1860.2
-19.0546,1867.7
-16.0776,1887.4
-13.1015,1971.75
-10.1265,2304.65
-7.1524,2955.6
-4.17932,3578.4
-1.20723,3837.5
1.76388,3428.65
4.734,2488.2
7.70313,1986.65
10.6713,1867.3
13.6384,1857.3
16.6046,1855.95
19.5698,1854.05
22.534,1854.25
25.4972,1854.1
28.4595,1854.05
31.4207,1854.2
34.381,1854.75
37.3403,1854.25
40.2986,1856.7
43.256,1858.4
46.2123,1863.4
49.1677,1880.4
52.1221,1927.1
55.0755,2024.15
58.0279,2158.1
60.9794,2296.55
63.9299,2403.45
66.8794,2465.9
69.8279,2487.4
72.7754,2494.2
75.722,2495.35
78.6676,2486.2
81.6122,2488.1
84.5559,2494.3
87.4985,2485.25
90.4402,2483.65
93.381,2476.15
96.3207,2468.35
99.2595,2462.3
102.197,2467.65
105.134,2474.95
108.07,2482.55
111.005,2480.95
113.939,2485.5
116.872,2482.6
119.804,2504.4
122.735,2478.65
125.665,2459.5
128.594,2449.3
131.522,2448.3
134.449,2440.05
137.375,2416.3
140.301,2441.6
143.225,2451.75
146.148,2441.6
149.07,2452.5
151.992,2459.35
154.912,2454.0
157.832,2464.3
160.75,2479.75
163.668,2453.3
166.584,2443.6
169.5,2424.3
172.414,2449.05
175.328,2452.05
178.241,2460.55
181.153,2459.15
184.063,2465.35
186.973,2488.7
189.882,2469.6
192.79,2479.35
195.697,2486.3
198.603,2475.0
201.508,2470.2
204.412,2469.25
207.315,2461.85
210.217,2455.3
213.119,2459.4
216.019,2468.65
218.918,2463.25
221.816,2464.95
224.714,2465.75
227.61,2452.15
230.506,2466.25
233.4,2456.35
236.294,2474.1
239.187,2479.7
242.078,2494.55
244.969,2490.8
247.859,2482.5
250.748,2478.15
253.636,2484.15
256.523,2469.45
259.409,2469.0
262.294,2477.15
265.178,2485.85
268.061,2481.7
270.943,2478.6
273.824,2475.45
276.705,2476.6
279.584,2483.3
282.463,2503.85
285.34,2504.8
288.217,2503.8
291.092,2524.5
293.967,2527.35
296.841,2528.65
299.713,2528.2
302.585,2519.0
305.456,2519.85
308.326,2525.75
311.195,2535.0
314.063,2557.05
316.93,2539.4
319.797,2535.95
322.662,2539.15
325.526,2524.5
328.389,2527.55
331.252,2524.3
334.113,2533.9
336.974,2522.9
339.834,2534.1
342.692,2527.9
345.55,2531.15
348.407,2531.45
351.263,2541.4
354.118,2550.25
356.972,2557.05
359.825,2552.8
362.677,2563.1
365.529,2557.75
368.379,2562.3
371.228,2578.2
374.077,2579.9
376.924,2593.1
379.771,2589.3
382.616,2582.15
385.461,2592.35
388.305,2603.4
391.148,2611.5
393.99,2629.8
396.831,2649.6
399.671,2637.15
402.51,2634.9
405.348,2633.45
408.186,2627.6
411.022,2628.1
413.858,2631.9
416.692,2632.5
419.526,2603.0
422.359,2619.15
425.19,2602.05
428.021,2604.65
430.851,2599.35
433.68,2610.0
436.508,2613.75
439.335,2611.45
442.162,2625.75
444.987,2640.25
447.811,2618.55
450.635,2608.4
453.458,2621.55
456.279,2612.1
459.1,2597.85
461.92,2603.05
464.739,2629.7
467.557,2635.8
470.374,2634.5
473.19,2650.0
476.005,2637.8
478.82,2637.6
481.633,2632.7
484.445,2644.75
487.257,2648.85
490.068,2635.5
492.878,2637.8
495.686,2641.75
498.494,2642.85
501.301,2645.8
504.107,2656.45
506.913,2664.8
509.717,2676.55
512.52,2680.85
515.323,2660.55
518.124,2664.3
520.925,2658.15
523.725,2670.5
526.524,2686.1
529.322,2677.95
532.119,2678.45
534.915,2673.7
537.71,2687.0
540.504,2689.5
543.298,2685.1
546.09,2691.15
548.882,2707.65
551.673,2718.1
554.462,2722.35
557.251,2723.4
560.039,2724.3
562.826,2720.6
565.613,2729.7
568.398,2727.0
571.182,2748.65
573.966,2728.75
576.748,2728.85
579.53,2730.0
582.311,2744.75
585.091,2732.35
587.87,2732.45
590.648,2746.7
593.425,2755.4
596.201,2754.95
598.977,2742.5
601.751,2742.4
604.525,2754.65
607.298,2747.75
610.069,2723.85
612.84,2739.8
615.61,2746.45
618.38,2761.05
621.148,2756.6
623.915,2753.85
626.682,2749.45
629.447,2756.6
632.212,2777.7
634.976,2770.3
637.739,2799.0
640.501,2807.65
643.262,2780.7
646.022,2799.1
648.781,2782.75
651.54,2788.95
654.297,2801.5
657.054,2823.75
659.81,2819.3
662.565,2810.45
665.319,2808.1
668.072,2819.3
670.824,2812.35
673.575,2853.5
676.326,2849.45
679.075,2820.55
681.824,2821.75
684.572,2822.15
687.319,2822.05
690.065,2816.4
692.81,2822.9
695.554,2826.2
698.298,2829.65
701.04,2842.1
703.782,2819.4
706.522,2811.8
709.262,2830.6
712.001,2834.1
714.739,2818.3
717.477,2818.2
720.213,2810.5
722.948,2829.5
725.683,2840.1
728.417,2852.25
731.15,2846.65
733.882,2849.85
736.613,2859.7
739.343,2870.0
742.072,2866.6
744.801,2865.5
747.528,2878.55
750.255,2859.2
752.981,2847.2
755.706,2863.95
758.43,2876.3
761.153,2864.15
763.875,2852.2
766.597,2856.75
769.317,2878.05
772.037,2864.85
774.756,2874.3
777.474,2880.15
780.191,2864.85
782.907,2866.3
785.623,2854.25
788.337,2863.4
791.051,2886.25
793.764,2877.15
796.475,2869.15
799.186,2882.2
801.897,2858.5
804.606,2876.25
807.314,2877.7
810.022,2881.45
812.729,2855.45
815.434,2867.8
818.139,2877.3
820.844,2858.85
823.547,2871.85
826.249,2887.6
828.951,2867.4
831.651,2885.5
834.351,2885.45
837.05,2856.6
839.748,2890.2
842.445,2898.5
845.142,2921.15
847.837,2912.5
850.532,2919.35
853.225,2934.8
855.918,2928.5
858.61,2963.9
861.302,3027.1
863.992,3075.05
866.681,3098.65
869.37,3142.45
872.058,3169.45
874.745,3153.65
877.431,3120.5
880.116,3076.7
882.8,3037.15
885.484,3024.8
888.166,2989.6
890.848,2978.1
893.529,2953.35
896.209,2939.25
898.888,2959.95
901.566,2957.15
904.244,2964.8
906.921,2958.8
909.596,2952.2
912.271,2967.9
914.945,2981.2
917.619,2964.9
920.291,2961.95
922.963,2965.55
925.633,2972.25
928.303,2970.55
930.972,2952.55
933.64,2928.6
936.308,2959.75
938.974,2967.85
941.64,2971.2
944.304,2972.65
946.968,2971.1
949.631,2959.85
952.294,2952.6
954.955,2990.75
957.615,2980.35
960.275,2982.8
962.934,2978.75
965.592,2985.9
968.249,2997.15
970.905,2961.05
973.561,2961.8
976.215,2975.75
978.869,2968.2
981.522,2976.9
984.174,2993.85
986.826,3005.25
989.476,3002.35
992.126,2994.95
994.774,3000.4
997.422,3000.25
1000.07,3000.1
1002.72,3001.2
1005.36,3027.95
1008.01,3037.2
1010.65,3013.8
1013.29,3004.45
1015.93,3005.65
1018.58,3023.45
1021.22,3028.6
1023.86,3033.4
1026.49,3059.1
1029.13,3045.5
1031.77,3054.95
1034.4,3076.9
1037.04,3070.0
1039.67,3097.85
1042.31,3105.7
1044.94,3114.55
1047.57,3117.3
1050.2,3107.75
1052.83,3083.65
1055.46,3061.95
1058.09,3069.1
1060.72,3061.1
1063.35,3082.15
1065.97,3071.2
1068.6,3082.35
1071.22,3048.65
1073.85,3056.4
1076.47,3052.05
1079.09,3080.8
1081.71,3081.75
1084.33,3087.55
1086.95,3110.55
1089.57,3136.5
1092.19,3119.2
1094.81,3153.1
1097.42,3146.0
1100.04,3118.7
1102.65,3115.65
1105.27,3124.15
1107.88,3158.85
1110.49,3157.3
1113.1,3160.8
1115.71,3160.45
1118.32,3180.45
1120.93,3192.55
1123.54,3194.8
1126.15,3200.15
1128.75,3187.25
1131.36,3192.3
1133.97,3181.45
1136.57,3172.05
1139.17,3161.15
1141.77,3135.45
1144.38,3155.2
1146.98,3119.4
1149.58,3118.7
1152.18,3114.3
1154.77,3110.75
1157.37,3119.45
1159.97,3134.6
1162.56,3089.7
1165.16,3114.95
1167.75,3117.6
1170.35,3105.3
1172.94,3126.65
1175.53,3143.55
1178.12,3141.95
1180.71,3135.4
1183.3,3134.85
1185.89,3159.55
1188.48,3162.35
1191.06,3176.85
1193.65,3142.9
1196.23,3138.75
1198.82,3174.8
1201.4,3183.35
1203.99,3173.85
1206.57,3144.4
1209.15,3153.5
1211.73,3168.85
1214.31,3182.1
1216.89,3185.85
1219.46,3189.35
1222.04,3199.1
1224.62,3188.95
1227.19,3149.9
1229.77,3142.35
1232.34,3162.45
1234.92,3191.45
1237.49,3198.0
1240.06,3190.15
1242.63,3187.3
1245.2,3181.3
1247.77,3195.2
1250.34,3222.15
1252.9,3203.95
1255.47,3220.7
1258.04,3210.5
1260.6,3194.05
1263.17,3174.2
1265.73,3202.8
1268.29,3218.65
1270.85,3219.25
1273.41,3195.05
1275.97,3197.7
1278.53,3185.8
1281.09,3177.85
1283.65,3188.05
1286.21,3223.65
1288.76,3246.85
1291.32,3269.8
1293.87,3272.0
1296.43,3280.3
1298.98,3278.45
1301.53,3256.8
1304.08,3290.4
1306.63,3302.7
1309.18,3293.05
1311.73,3269.1
1314.28,3259.7
1316.83,3275.3
1319.38,3265.35
1321.92,3243.0
1324.47,3272.4
1327.01,3259.95
1329.55,3297.8
1332.1,3304.35
1334.64,3297.2
1337.18,3264.25
1339.72,3270.8
1342.26,3267.05
1344.8,3270.65
1347.34,3288.8
1349.87,3282.4
1352.41,3285.5
1354.95,3257.6
1357.48,3276.95
1360.01,3264.5
1362.55,3286.0
1365.08,3274.25
1367.61,3260.85
1370.14,3259.1
1372.67,3268.95
1375.2,3235.75
1377.73,3267.55
1380.26,3285.65
1382.78,3292.1
1385.31,3293.3
1387.84,3301.5
1390.36,3300.45
1392.88,3274.95
1395.41,3270.3
1397.93,3262.15
1400.45,3257.5
1402.97,3284.3
1405.49,3267.05
1408.01,3288.4
1410.53,3274.2
1413.05,3274.85
1415.56,3266.75
1418.08,3242.55
1420.59,3241.65
1423.11,3261.25
1425.62,3278.8
1428.14,3286.75
1430.65,3291.45
1433.16,3289.5
1435.67,3276.15
1438.18,3298.25
1440.69,3366.8
1443.2,3388.55
1445.7,3414.8
1448.21,3442.1
1450.72,3443.05
1453.22,3455.1
1455.72,3431.85
1458.23,3410.2
1460.73,3400.05
1463.23,3386.7
1465.73,3342.9
1468.23,3359.8
1470.73,3357.65
1473.23,3319.75
1475.73,3316.65
1478.23,3295.2
1480.72,3287.95
1483.22,3292.6
1485.72,3297.05
1488.21,3278.35
1490.7,3262.85
1493.2,3250.55
1495.69,3245.85
1498.18,3249.95
1500.67,3260.3
1503.16,3246.55
1505.65,3267.6
1508.14,3244.15
1510.62,3269.15
1513.11,3266.15
1515.59,3284.25
1518.08,3280.9
1520.56,3294.85
1523.05,3290.7
1525.53,3278.9
1528.01,3265.8
1530.49,3249.55
1532.97,3283.6
1535.45,3276.35
1537.93,3251.05
1540.41,3266.65
1542.89,3284.35
1545.36,3298.1
1547.84,3278.35
1550.31,3271.85
1552.79,3283.35
1555.26,3283.5
1557.73,3290.55
1560.21,3283.75
1562.68,3312.35
1565.15,3305.9
1567.62,3286.8
1570.09,3302.6
1572.56,3292.0
1575.02,3303.1
1577.49,3288.85
1579.95,3289.1
1582.42,3290.75
1584.88,3311.0
1587.35,3287.15
1589.81,3285.65
1592.27,3295.85
1594.73,3314.45
1597.19,3306.3
1599.65,3303.45
1602.11,3291.25
1604.57,3300.8
1607.03,3278.6
1609.49,3274.0
1611.94,3277.3
1614.4,3303.4
1616.85,3294.1
1619.31,3306.5
1621.76,3294.7
1624.21,3272.95
1626.66,3284.3
1629.11,3316.05
1631.56,3319.5
1634.01,3313.35
1636.46,3291.5
1638.91,3268.9
1641.36,3250.55
1643.8,3272.75
1646.25,3293.3
1648.69,3304.6
1651.14,3277.1
1653.58,3282.65
1656.02,3312.0
1658.46,3305.75
1660.9,3311.3
1663.35,3352.85
1665.78,3345.55
1668.22,3325.6
1670.66,3324.7
1673.1,3314.2
1675.54,3309.6
1677.97,3282.2
1680.41,3286.35
1682.84,3292.75
1685.27,3291.25
1687.71,3294.55
1690.14,3289.05
1692.57,3306.25
1695.0,3308.8
1697.43,3277.1
1699.86,3283.05
1702.29,3277.5
1704.71,3278.95
1707.14,3266.45
1709.57,3257.1
1711.99,3290.45
1714.42,3315.25
1716.84,3279.15
1719.26,3256.6
1721.69,3287.3
1724.11,3271.4
1726.53,3255.2
1728.95,3265.75
1731.37,3281.7
1733.79,3282.35
1736.21,3276.2
1738.62,3283.7
1741.04,3332.55
1743.46,3340.25
1745.87,3337.3
1748.28,3346.75
1750.7,3368.3
1753.11,3381.6
1755.52,3408.05
1757.93,3398.3
1760.34,3389.05
1762.75,3396.9
1765.16,3425.8
1767.57,3436.6
1769.98,3410.4
1772.39,3383.7
1774.79,3384.65
1777.2,3386.3
1779.6,3377.45
1782.01,3395.35
1784.41,3391.05
1786.81,3344.1
1789.21,3325.5
1791.62,3299.2
1794.02,3311.3
1796.41,3286.1
1798.81,3282.25
1801.21,3303.65
1803.61,3314.1
1806.01,3283.65
1808.4,3274.85
1810.8,3289.85
1813.19,3265.4
1815.59,3284.8
1817.98,3287.9
1820.37,3287.3
1822.76,3296.1
1825.15,3261.2
1827.54,3237.1
1829.93,3254.5
1832.32,3259.15
1834.71,3282.65
1837.1,3255.7
1839.48,3286.5
1841.87,3264.35
1844.25,3248.55
1846.64,3235.25
1849.02,3263.3
1851.4,3275.3
1853.79,3268.05
1856.17,3243.45
1858.55,3274.1
1860.93,3259.45
1863.31,3269.0
1865.69,3286.2
1868.06,3272.95
1870.44,3268.65
1872.82,3281.4
1875.19,3258.6
1877.57,3290.5
1879.94,3283.8
1882.31,3287.6
1884.69,3281.45
1887.06,3263.95
1889.43,3279.05
1891.8,3299.45
1894.17,3285.0
1896.54,3302.0
1898.91,3278.35
1901.28,3275.35
1903.64,3261.65
1906.01,3285.55
1908.38,3303.2
1910.74,3314.6
1913.1,3313.4
1915.47,3290.7
1917.83,3281.25
1920.19,3261.55
1922.55,3267.05
1924.91,3271.2
1927.27,3274.0
1929.63,3265.6
1931.99,3265.1
1934.35,3284.65
1936.71,3270.25
1939.06,3248.9
1941.42,3250.8
1943.77,3252.4
1946.13,3283.3
1948.48,3293.4
1950.83,3250.05
1953.19,3269.85
1955.54,3283.3
1957.89,3261.8
1960.24,3264.5
1962.59,3279.75
1964.93,3273.95
1967.28,3273.5
1969.63,3286.55
1971.98,3290.2
1974.32,3270.65
1976.67,3275.2
1979.01,3245.15
1981.35,3255.3
1983.7,3279.4
1986.04,3285.0
1988.38,3288.25
1990.72,3283.4
1993.06,3266.8
1995.4,3257.5
1997.74,3270.4
2000.08,3295.5
2002.41,3280.5
2004.75,3277.4
2007.09,3276.4
2009.42,3297.2
2011.75,3306.9
2014.09,3273.9
2016.42,3287.5
2018.75,3306.75
2021.08,3325.0
2023.42,3325.3
2025.75,3307.2
2028.08,3307.7
2030.4,3298.2
2032.73,3284.7
2035.06,3271.75
2037.39,3298.35
2039.71,3293.6
2042.04,3280.65
2044.36,3278.0
2046.69,3255.75
2049.01,3265.45
2051.33,3284.15
2053.65,3299.6
2055.97,3282.3
2058.29,3295.9
2060.61,3279.4
2062.93,3279.25
2065.25,3278.25
2067.57,3298.25
2069.88,3288.6
2072.2,3304.95
2074.52,3292.4
2076.83,3291.65
2079.15,3297.25
2081.46,3301.45
2083.77,3293.0
2086.08,3266.85
2088.39,3282.4
2090.7,3302.65
2093.01,3276.25
2095.32,3307.65
2097.63,3282.1
2099.94,3277.05
2102.25,3261.85
2104.55,3293.55
2106.86,3305.05
2109.16,3318.5
2111.47,3293.5
2113.77,3311.65
2116.08,3309.7
2118.38,3288.1
2120.68,3293.95
2122.98,3322.3
2125.28,3295.5
2127.58,3274.8
2129.88,3272.2
2132.18,3284.9
2134.47,3327.8
2136.77,3313.05
2139.07,3281.2
2141.36,3267.2
2143.66,3282.85
2145.95,3293.15
2148.24,3312.15
2150.54,3301.4
2152.83,3298.0
2155.12,3273.05
2157.41,3292.85
2159.7,3295.2
2161.99,3294.75
2164.28,3298.9
2166.57,3312.0
2168.85,3307.7
2171.14,3315.2
2173.43,3316.45
2175.71,3294.0
2178.0,3277.85
2180.28,3294.25
2182.56,3301.9
2184.84,3296.55
2187.13,3286.1
2189.41,3300.1
2191.69,3305.45
2193.97,3304.85
2196.25,3299.15
2198.52,3294.65
2200.8,3282.0
2203.08,3308.8
2205.36,3318.9
2207.63,3310.15
2209.91,3312.7
2212.18,3319.9
2214.45,3293.85
2216.73,3300.85
2219.0,3302.85
2221.27,3316.6
2223.54,3315.7
2225.81,3297.95
2228.08,3279.05
2230.35,3282.45
2232.62,3306.65
2234.89,3297.9
2237.15,3271.2
2239.42,3275.25
2241.68,3303.4
2243.95,3326.35
2246.21,3300.4
2248.48,3324.5
2250.74,3317.0
2253.0,3293.1
2255.26,3295.0
2257.52,3313.0
2259.78,3325.55
2262.04,3291.15
2264.3,3282.9
2266.56,3316.85
2268.82,3314.8
2271.07,3289.2
2273.33,3268.7
2275.58,3281.25
2277.84,3269.4
2280.09,3261.25
2282.35,3291.4
2284.6,3295.05
2286.85,3294.65
2289.1,3297.8
2291.35,3301.15
2293.6,3311.7
2295.85,3309.1
2298.1,3282.8
2300.35,3310.9
2302.6,3294.9
2304.84,3293.2
2307.09,3293.35
2309.33,3316.35
2311.58,3299.3
2313.82,3282.05
2316.07,3297.45
2318.31,3311.65
2320.55,3325.2
2322.79,3305.25
2325.03,3263.5
2327.27,3272.7
2329.51,3301.55
2331.75,3312.6
2333.99,3315.15
2336.23,3326.65
2338.46,3329.1
2340.7,3316.0
2342.93,3293.2
2345.17,3296.4
2347.4,3327.3
2349.64,3311.95
2351.87,3279.05
2354.1,3245.95
2356.33,3284.1
2358.56,3290.45
2360.79,3277.2
2363.02,3301.7
2365.25,3296.3
2367.48,3305.35
2369.71,3291.7
2371.93,3310.2
2374.16,3282.4
2376.38,3273.2
2378.61,3280.7
2380.83,3294.8
2383.06,3287.85
2385.28,3305.15
2387.5,3298.15
2389.72,3328.8
2391.94,3297.05
2394.16,3289.6
2396.38,3303.1
2398.6,3283.6
2400.82,3302.15
2403.04,3309.9
2405.26,3320.3
2407.47,3320.2
2409.69,3322.85
2411.9,3279.25
2414.12,3303.75
2416.33,3321.7
2418.54,3332.85
2420.76,3323.4
2422.97,3317.9
2425.18,3308.25
2427.39,3285.15
2429.6,3293.5
2431.81,3316.35
2434.02,3292.9
2436.22,3287.6
2438.43,3308.5
2440.64,3300.0
2442.84,3288.15
2445.05,3268.0
2447.25,3280.6
2449.46,3266.55
2451.66,3283.05
2453.86,3291.45
2456.06,3315.05
2458.27,3324.7
2460.47,3346.6
2462.67,3315.0
2464.87,3271.85
2467.06,3268.0
2469.26,3293.4
2471.46,3294.4
2473.66,3278.3
2475.85,3297.25
2478.05,3306.45
2480.24,3317.45
2482.44,3286.15
2484.63,3297.05
2486.82,3293.05
2489.02,3272.95
2491.21,3276.15
2493.4,3271.75
2495.59,3263.5
2497.78,3288.45
2499.97,3312.6
2502.16,3326.1
2504.34,3295.15
2506.53,3279.65
2508.72,3285.3
2510.9,3301.5
2513.09,3288.15
2515.27,3283.85
2517.46,3296.25
2519.64,3282.15
2521.82,3281.8
2524.0,3307.0
2526.19,3302.65
2528.37,3318.45
2530.55,3328.2
2532.73,3292.7
2534.9,3285.1
2537.08,3268.2
2539.26,3277.4
2541.44,3324.9
2543.61,3307.5
2545.79,3274.2
2547.96,3286.0
2550.14,3304.0
2552.31,3290.15
2554.48,3299.3
2556.66,3257.95
2558.83,3281.05
2561.0,3280.65
2563.17,3290.75
2565.34,3287.05
2567.51,3280.6
2569.68,3299.75
2571.85,3299.2
2574.01,3277.45
2576.18,3275.3
2578.35,3266.55
2580.51,3261.15
2582.68,3257.5
2584.84,3274.9
2587.0,3276.9
2589.17,3267.5
2591.33,3288.3
2593.49,3293.25
2595.65,3299.85
2597.81,3276.1
2599.97,3275.1
2602.13,3278.3
2604.29,3287.7
2606.45,3291.4
2608.6,3290.75
2610.76,3297.1
2612.92,3265.85
2615.07,3287.0
2617.23,3285.45
2619.38,3278.75
2621.53,3289.85
2623.69,3274.45
2625.84,3271.4
2627.99,3251.75
2630.14,3315.85
2632.29,3287.15
2634.44,3291.05
2636.59,3281.35
2638.74,3280.35
2640.89,3289.4
2643.03,3267.2
2645.18,3247.95
2647.33,3272.9
2649.47,3290.6
2651.62,3275.75
2653.76,3289.5
2655.9,3292.0
2658.05,3316.85
2660.19,3313.35
2662.33,3299.25
2664.47,3285.8
2666.61,3244.05
2668.75,3265.55
2670.89,3286.45
2673.03,3265.9
2675.17,3262.2
2677.3,3288.5
2679.44,3292.5
2681.58,3275.8
2683.71,3268.3
2685.84,3277.4
2687.98,3287.7
2690.11,3292.45
2692.25,3296.35
2694.38,3294.85
2696.51,3257.9
2698.64,3247.55
2700.77,3269.05
2702.9,3277.0
2705.03,3272.75
2707.16,3258.95
2709.29,3279.15
2711.41,3308.45
2713.54,3304.3
2715.67,3268.65
2717.79,3256.95
2719.92,3254.5
2722.04,3267.95
2724.16,3279.35
2726.29,3255.95
2728.41,3270.3
2730.53,3266.0
2732.65,3310.6
2734.77,3323.45
2736.89,3332.95
2739.01,3304.3
2741.13,3320.05
2743.25,3320.55
2745.36,3327.0
2747.48,3274.8
2749.6,3265.8
2751.71,3278.75
2753.83,3284.7
2755.94,3288.05
2758.06,3282.9
2760.17,3287.0
2762.28,3291.45
2764.39,3264.85
2766.5,3251.9
2768.61,3252.3
2770.72,3266.15
2772.83,3270.95
2774.94,3285.8
2777.05,3288.95
2779.16,3236.9
2781.27,3226.5
2783.37,3251.8
2785.48,3255.4
2787.58,3242.8
2789.69,3215.25
2791.79,3224.15
2793.89,3240.0
2796.0,3260.15
2798.1,3267.35
2800.2,3243.6
2802.3,3223.05
2804.4,3252.1
2806.5,3238.2
2808.6,3216.25
2810.7,3219.55
2812.8,3212.15
2814.89,3223.2
2816.99,3245.75
2819.09,3246.1
2821.18,3267.05
2823.28,3252.85
2825.37,3245.5
2827.46,3254.05
2829.56,3250.95
2831.65,3237.35
2833.74,3231.75
2835.83,3237.2
2837.92,3245.5
2840.01,3243.75
2842.1,3247.15
2844.19,3277.65
2846.28,3237.0
2848.37,3256.7
2850.45,3273.15
2852.54,3263.85
2854.63,3300.55
2856.71,3322.3
2858.8,3269.75
2860.88,3274.75
2862.96,3322.9
2865.05,3353.3
2867.13,3330.4
2869.21,3357.9
2871.29,3390.65
2873.37,3449.1
2875.45,3486.1
2877.53,3536.35
2879.61,3562.2
2881.69,3506.85
2883.76,3525.85
2885.84,3518.5
2887.92,3519.4
2889.99,3461.0
2892.07,3460.15
2894.14,3424.1
2896.22,3440.95
2898.29,3454.8
2900.36,3456.15
2902.43,3460.15
2904.5,3485.75
2906.58,3448.4
2908.65,3470.85
2910.72,3492.4
2912.78,3492.9
2914.85,3501.3
2916.92,3477.45
2918.99,3483.9
2921.05,3447.85
2923.12,3437.1
2925.19,3524.8
2927.25,3547.85
2929.32,3611.8
2931.38,3710.6
2933.44,3803.25
2935.5,3956.9
2937.57,4069.75
2939.63,4234.0
2941.69,4429.4
2943.75,4530.65
2945.81,4633.3
2947.87,4599.85
2949.93,4487.25
2951.98,4375.5
2954.04,4192.75
2956.1,4114.35
2958.15,3986.55
2960.21,3883.4
2962.26,3742.75
2964.32,3660.2
2966.37,3616.8
2968.42,3607.3
2970.48,3599.3
2972.53,3580.25
2974.58,3560.75
2976.63,3525.35
2978.68,3514.1
2980.73,3493.55
2982.78,3480.15
2984.83,3517.35
2986.87,3572.15
2988.92,3584.25
2990.97,3587.45
2993.01,3619.7
2995.06,3669.55
2997.1,3687.3
2999.15,3720.75
3001.19,3759.45
3003.24,3729.9
3005.28,3687.1
3007.32,3653.65
3009.36,3602.05
3011.4,3613.2
3013.44,3555.6
3015.48,3489.45
3017.52,3459.45
3019.56,3417.45
3021.6,3406.9
3023.63,3358.15
3025.67,3307.75
3027.71,3280.05
3029.74,3253.35
3031.78,3221.35
3033.81,3212.4
3035.85,3211.15
3037.88,3206.5
3039.91,3201.0
3041.94,3167.4
3043.97,3151.15
3046.01,3171.6
3048.04,3137.1
3050.07,3141.6
3052.09,3119.2
3054.12,3131.05
3056.15,3142.7
3058.18,3112.6
3060.2,3103.15
3062.23,3100.2
3064.26,3123.2
3066.28,3085.55
3068.31,3096.2
3070.33,3106.7
3072.35,3129.65
3074.38,3097.7
3076.4,3092.0
3078.42,3108.95
