nm,Intensity
526.5,829.4
526.637,828.9
526.774,828.9
526.91,829.8
527.047,827.8
527.184,829.0
527.32,829.5
527.457,829.4
527.594,829.1
527.73,829.9
527.867,828.2
528.004,830.0
528.14,828.9
528.277,829.1
528.414,829.2
528.55,829.1
528.687,830.4
528.823,828.4
528.96,829.9
529.096,828.8
529.233,828.4
529.37,828.6
529.506,828.9
529.643,829.3
529.779,830.0
529.916,828.9
530.052,828.6
530.189,829.8
530.325,828.9
530.462,829.5
530.598,829.8
530.735,827.4
530.871,828.9
531.008,830.3
531.144,829.4
531.28,828.0
531.417,829.2
531.553,830.2
531.69,830.0
531.826,829.5
531.962,835.3
532.099,882.1
532.235,901.2
532.372,845.9
532.508,831.3
532.644,829.8
532.781,829.1
532.917,830.9
533.053,829.5
533.19,829.5
533.326,829.8
533.462,830.4
533.599,839.9
533.735,926.6
533.871,1384.2
534.007,2108.3
534.144,2457.0
534.28,2432.5
534.416,2309.3
534.552,2184.5
534.689,2086.9
534.825,1951.4
534.961,1798.8
535.097,1660.8
535.234,1520.8
535.37,1402.0
535.506,1312.8
535.642,1250.4
535.778,1194.5
535.914,1150.7
536.051,1111.8
536.187,1081.5
536.323,1059.6
536.459,1045.1
536.595,1029.6
536.731,1025.8
536.867,1016.6
537.003,1006.3
537.14,1009.3
537.276,998.5
537.412,995.8
537.548,990.9
537.684,983.9
537.82,985.8
537.956,991.5
538.092,999.6
538.228,1005.6
538.364,1009.2
538.5,1013.4
538.636,1012.1
538.772,996.9
538.908,980.2
539.044,952.0
539.18,933.3
539.316,916.7
539.452,910.8
539.588,909.6
539.724,904.0
539.86,902.2
539.996,900.4
540.132,900.4
540.268,898.7
540.403,898.3
540.539,893.8
540.675,893.5
540.811,890.5
540.947,889.5
541.083,891.5
541.219,890.4
541.355,888.3
541.49,890.3
541.626,889.9
541.762,886.9
541.898,885.0
542.034,888.8
542.17,887.1
542.305,884.9
542.441,885.2
542.577,882.4
542.713,883.2
542.848,888.3
542.984,887.2
543.12,888.6
543.256,889.4
543.391,892.3
543.527,895.8
543.663,899.9
543.799,902.7
543.934,900.3
544.07,900.1
544.206,896.1
544.341,892.0
544.477,888.7
544.613,888.0
544.748,883.6
544.884,881.7
545.02,881.3
545.155,881.1
545.291,880.0
545.427,875.2
545.562,876.2
545.698,875.5
545.833,874.8
545.969,872.9
546.105,872.2
546.24,873.2
546.376,873.2
546.511,873.1
546.647,873.0
546.782,871.6
546.918,870.8
547.053,873.8
547.189,872.9
547.325,875.4
547.46,873.3
547.596,875.9
547.731,878.9
547.867,877.6
548.002,880.3
548.137,877.5
548.273,881.2
548.408,877.3
548.544,878.8
548.679,875.1
548.815,875.4
548.95,874.0
549.086,872.1
549.221,874.9
549.356,870.4
549.492,869.7
549.627,871.7
549.763,872.1
549.898,873.9
550.033,877.2
550.169,896.5
550.304,949.4
550.439,957.4
550.575,903.2
550.71,879.1
550.845,872.1
550.981,869.5
551.116,867.0
551.251,864.7
551.387,862.6
551.522,864.8
551.657,862.7
551.793,862.9
551.928,863.9
552.063,864.9
552.198,863.9
552.334,863.7
552.469,862.5
552.604,865.5
552.739,863.9
552.874,865.2
553.01,868.0
553.145,860.6
553.28,865.6
553.415,863.3
553.55,865.9
553.686,869.8
553.821,874.1
553.956,881.4
554.091,888.8
554.226,892.8
554.361,896.0
554.497,903.8
554.632,909.5
554.767,905.9
554.902,902.6
555.037,895.3
555.172,895.3
555.307,901.4
555.442,920.6
555.577,935.7
555.712,949.6
555.848,940.1
555.983,914.5
556.118,897.5
556.253,889.5
556.388,881.8
556.523,873.5
556.658,872.2
556.793,871.8
556.928,880.1
557.063,889.9
557.198,891.6
557.333,880.6
557.468,878.6
557.603,879.0
557.738,876.0
557.873,877.5
558.008,876.0
558.142,874.3
558.277,872.9
558.412,868.3
558.547,877.3
558.682,874.1
558.817,876.7
558.952,879.8
559.087,884.6
559.222,885.1
559.357,878.7
559.492,874.1
559.626,870.7
559.761,869.3
559.896,868.2
560.031,865.8
560.166,868.7
560.301,869.6
560.435,872.9
560.57,873.5
560.705,872.9
560.84,873.7
560.975,877.7
561.109,874.1
561.244,880.8
561.379,884.3
561.514,897.0
561.649,921.0
561.783,965.4
561.918,1074.1
562.053,1508.6
562.188,1740.9
562.322,1257.9
562.457,966.9
562.592,909.6
562.726,906.2
562.861,956.7
562.996,1063.5
563.131,1110.8
563.265,1040.2
563.4,946.4
563.535,915.4
563.669,901.2
563.804,893.4
563.939,897.1
564.073,900.6
564.208,901.3
564.342,904.8
564.477,906.3
564.612,905.0
564.746,899.1
564.881,900.2
565.015,901.0
565.15,899.0
565.285,896.7
565.419,893.8
565.554,884.3
565.688,879.9
565.823,876.8
565.957,871.6
566.092,871.8
566.227,872.3
566.361,873.5
566.496,876.6
566.63,882.9
566.765,894.6
566.899,927.9
567.034,958.7
567.168,951.1
567.303,920.0
567.437,911.4
567.572,912.7
567.706,940.3
567.84,987.2
567.975,1003.5
568.109,993.9
568.244,999.5
568.378,1010.8
568.513,1016.1
568.647,997.4
568.781,968.7
568.916,941.0
569.05,919.5
569.185,908.4
569.319,905.9
569.453,900.1
569.588,896.9
569.722,891.2
569.857,888.2
569.991,893.5
570.125,886.3
570.26,889.8
570.394,887.9
570.528,889.4
570.663,885.4
570.797,883.5
570.931,886.3
571.065,884.6
571.2,888.1
571.334,889.6
571.468,893.1
571.603,894.1
571.737,896.4
571.871,899.0
572.005,902.3
572.14,906.4
572.274,908.8
572.408,915.9
572.542,920.5
572.677,923.7
572.811,919.5
572.945,911.5
573.079,909.6
573.213,899.6
573.348,896.7
573.482,896.9
573.616,898.9
573.75,899.7
573.884,898.3
574.018,898.5
574.153,896.5
574.287,891.7
574.421,888.3
574.555,883.0
574.689,881.7
574.823,880.1
574.957,881.9
575.092,880.6
575.226,880.6
575.36,879.0
575.494,878.5
575.628,880.2
575.762,878.2
575.896,882.7
576.03,883.3
576.164,893.0
576.298,902.9
576.432,921.4
576.566,933.4
576.7,937.0
576.834,931.9
576.968,906.5
577.103,893.2
577.237,884.9
577.371,880.1
577.505,883.5
577.639,878.3
577.773,882.5
577.907,881.5
578.04,882.0
578.174,884.2
578.308,883.2
578.442,880.5
578.576,882.2
578.71,877.6
578.844,881.4
578.978,879.4
579.112,880.3
579.246,880.9
579.38,882.2
579.514,883.2
579.648,880.0
579.782,883.9
579.916,881.2
580.049,883.6
580.183,880.9
580.317,882.5
580.451,884.6
580.585,887.6
580.719,886.4
580.853,898.9
580.986,922.4
581.12,962.4
581.254,958.4
581.388,924.7
581.522,949.2
581.656,1029.5
581.789,1122.6
581.923,1078.4
582.057,975.7
582.191,915.6
582.325,899.5
582.458,893.5
582.592,888.2
582.726,889.8
582.86,884.6
582.993,882.7
583.127,884.4
583.261,883.5
583.395,881.7
583.528,877.4
583.662,880.6
583.796,882.5
583.93,881.5
584.063,879.0
584.197,881.2
584.331,883.0
584.464,880.8
584.598,883.9
584.732,880.8
584.865,885.7
584.999,878.6
585.133,877.7
585.266,880.1
585.4,881.5
585.534,879.4
585.667,878.9
585.801,878.2
585.935,880.7
586.068,879.5
586.202,878.9
586.336,879.7
586.469,879.9
586.603,878.3
586.736,878.6
586.87,877.1
587.004,878.0
587.137,878.1
587.271,875.3
587.404,878.5
587.538,877.5
587.671,876.6
587.805,878.4
587.938,878.0
588.072,879.7
588.206,877.1
588.339,878.4
588.473,877.0
588.606,875.9
588.74,879.4
588.873,876.4
589.007,875.5
589.14,878.6
589.274,876.9
589.407,876.0
589.541,878.0
589.674,877.4
589.808,874.1
589.941,878.7
590.074,874.6
590.208,876.6
590.341,875.0
590.475,872.4
590.608,874.1
590.742,874.7
590.875,876.3
591.009,873.6
591.142,875.3
591.275,876.9
591.409,876.2
591.542,875.7
591.676,875.5
591.809,877.1
591.942,877.0
592.076,878.9
592.209,876.3
592.342,877.6
592.476,877.2
592.609,874.0
592.743,876.3
592.876,874.4
593.009,877.2
593.143,878.4
593.276,874.1
593.409,874.9
593.543,875.3
593.676,876.8
593.809,874.6
593.942,875.3
594.076,873.7
594.209,875.4
594.342,874.4
594.476,876.7
594.609,872.5
594.742,874.4
594.875,873.8
595.009,873.4
595.142,876.5
595.275,875.1
595.408,877.5
595.542,876.2
595.675,874.1
595.808,874.2
595.941,877.7
596.075,876.5
596.208,874.8
596.341,875.4
596.474,876.8
596.607,876.9
596.741,874.3
596.874,877.0
597.007,874.1
597.14,876.8
597.273,874.1
597.406,877.0
597.54,876.4
597.673,875.8
597.806,877.0
597.939,874.5
598.072,874.3
598.205,875.4
598.338,872.5
598.472,876.3
598.605,877.4
598.738,878.3
598.871,875.1
599.004,876.4
599.137,878.0
599.27,877.9
599.403,877.5
599.536,876.7
599.67,877.3
599.803,878.7
599.936,878.4
600.069,877.1
600.202,875.7
600.335,876.3
600.468,877.0
600.601,876.5
600.734,876.0
600.867,876.0
601.0,878.5
601.133,875.0
601.266,875.7
601.399,876.0
601.532,878.6
601.665,876.0
601.798,878.8
601.931,873.0
602.064,880.5
602.197,879.2
602.33,877.2
602.463,878.8
602.596,879.1
602.729,877.4
602.862,878.5
602.995,880.0
603.128,877.2
603.261,876.5
603.394,877.1
603.527,880.5
603.66,876.7
603.793,878.3
603.925,879.9
604.058,880.5
604.191,877.6
604.324,882.2
604.457,879.1
604.59,881.4
604.723,878.4
604.856,880.1
604.989,876.9
605.122,880.0
605.254,880.1
605.387,880.4
605.52,882.2
605.653,879.3
605.786,883.4
605.919,878.1
606.052,880.9
606.184,879.8
606.317,878.1
606.45,880.8
606.583,883.5
606.716,882.6
606.849,879.8
606.981,881.3
607.114,881.7
607.247,882.1
607.38,882.8
607.513,882.2
607.645,882.1
607.778,882.9
607.911,884.2
608.044,888.8
608.177,885.4
608.309,886.0
608.442,884.6
608.575,883.2
608.708,885.9
608.84,883.2
608.973,885.0
609.106,885.6
609.239,882.9
609.371,886.8
609.504,884.2
609.637,885.8
609.769,882.9
609.902,885.8
610.035,884.4
610.168,882.7
610.3,886.0
610.433,881.5
610.566,885.6
610.698,884.9
610.831,885.7
610.964,886.6
611.096,889.0
611.229,887.4
611.362,885.2
611.494,888.1
611.627,888.8
611.76,892.7
611.892,894.1
612.025,890.7
612.158,889.2
612.29,890.2
612.423,889.4
612.556,890.4
612.688,893.1
612.821,890.0
612.953,891.7
613.086,895.6
613.219,895.8
613.351,896.4
613.484,892.9
613.616,895.5
613.749,893.8
613.882,893.0
614.014,895.1
614.147,894.8
614.279,893.8
614.412,896.0
614.544,894.0
614.677,895.6
614.809,895.9
614.942,894.7
615.075,897.7
615.207,893.2
615.34,898.9
615.472,897.9
615.605,898.1
615.737,895.2
615.87,895.3
616.002,899.2
616.135,894.9
616.267,898.9
616.4,899.5
616.532,900.1
616.665,901.4
616.797,904.0
616.93,901.6
617.062,901.8
617.195,903.1
617.327,903.0
617.46,904.3
617.592,906.3
617.725,902.2
617.857,904.3
617.989,907.3
618.122,906.1
618.254,905.0
618.387,904.1
618.519,907.5
618.652,905.2
618.784,906.0
618.917,902.4
619.049,901.8
619.181,902.4
619.314,904.3
619.446,904.2
619.579,906.5
619.711,905.9
619.843,908.2
619.976,908.9
620.108,905.8
620.241,910.1
620.373,908.3
620.505,907.1
620.638,906.3
620.77,907.6
620.902,905.5
621.035,906.0
621.167,907.6
621.299,909.2
621.432,904.5
621.564,904.5
621.696,908.0
621.829,908.9
621.961,907.5
622.093,909.8
622.226,907.7
622.358,913.9
622.49,910.7
622.623,910.6
622.755,912.7
622.887,910.4
623.02,909.0
623.152,913.4
623.284,910.8
623.416,910.1
623.549,913.8
623.681,908.3
623.813,911.2
623.946,911.7
624.078,911.7
624.21,912.9
624.342,914.7
624.475,915.6
624.607,915.8
624.739,919.2
624.871,917.5
625.004,917.5
625.136,915.1
625.268,914.1
625.4,915.1
625.533,911.4
625.665,913.4
625.797,919.9
625.929,914.8
626.061,916.3
626.194,919.7
626.326,918.5
626.458,921.6
626.59,925.1
626.722,931.3
626.855,949.0
626.987,967.5
627.119,990.3
627.251,1014.7
627.383,1025.2
627.516,1026.8
627.648,1021.7
627.78,1001.7
627.912,990.7
628.044,985.1
628.176,987.3
628.308,987.6
628.441,1001.9
628.573,1014.9
628.705,1029.3
628.837,1047.0
628.969,1068.2
629.101,1093.3
629.233,1117.7
629.366,1132.0
629.498,1130.3
629.63,1124.5
629.762,1123.4
629.894,1114.8
630.026,1099.2
630.158,1086.1
630.29,1075.4
630.422,1064.9
630.554,1048.9
630.687,1030.9
630.819,1026.3
630.951,1019.0
631.083,1003.0
631.215,980.6
631.347,978.7
631.479,971.2
631.611,964.3
631.743,963.5
631.875,961.6
632.007,960.9
632.139,967.7
632.271,985.8
632.403,994.6
632.535,980.9
632.667,967.6
632.799,953.4
632.931,952.2
633.063,952.8
633.195,976.0
633.328,987.5
633.46,989.6
633.592,976.0
633.724,959.6
633.856,958.5
633.988,962.5
634.12,986.6
634.252,1010.8
634.384,1044.0
634.516,1087.5
634.647,1131.1
634.779,1161.0
634.911,1178.5
635.043,1199.4
635.175,1279.2
635.307,1414.8
635.439,1492.9
635.571,1500.2
635.703,1481.4
635.835,1435.1
635.967,1336.7
636.099,1235.8
636.231,1149.8
636.363,1080.5
636.495,1042.6
636.627,1017.3
636.759,998.0
636.891,981.1
637.023,973.1
637.155,962.2
637.286,963.2
637.418,957.3
637.55,956.3
637.682,954.2
637.814,953.0
637.946,943.8
638.078,941.8
638.21,941.8
638.342,936.3
638.474,937.4
638.605,938.1
638.737,937.9
638.869,935.7
639.001,934.4
639.133,936.8
639.265,936.6
639.397,934.4
639.529,943.2
639.66,942.4
639.792,949.1
639.924,955.6
640.056,950.4
640.188,947.3
640.32,945.0
640.452,935.1
640.583,933.3
640.715,937.3
640.847,937.8
640.979,937.0
641.111,937.5
641.243,939.6
641.374,947.2
641.506,946.3
641.638,950.4
641.77,942.9
641.902,940.6
642.033,935.4
642.165,937.0
642.297,933.0
642.429,930.3
642.561,934.1
642.692,929.5
642.824,934.3
642.956,933.0
643.088,936.8
643.22,933.9
643.351,926.9
643.483,931.2
643.615,929.3
643.747,931.7
643.878,928.9
644.01,926.5
644.142,929.4
644.274,929.0
644.405,927.6
644.537,931.1
644.669,929.4
644.801,929.5
644.932,929.2
645.064,928.7
645.196,927.3
645.328,928.8
645.459,933.7
645.591,928.2
645.723,932.8
645.854,932.6
645.986,933.1
646.118,929.8
646.25,930.9
646.381,929.1
646.513,932.0
646.645,931.7
646.776,934.3
646.908,931.6
647.04,933.6
647.172,933.9
647.303,933.4
647.435,935.8
647.567,932.0
647.698,930.4
647.83,935.8
647.962,931.7
648.093,933.1
648.225,934.5
648.357,938.8
648.488,932.3
648.62,928.3
648.752,936.3
648.883,929.6
649.015,932.0
649.147,935.1
649.278,934.0
649.41,929.2
649.542,931.3
649.673,934.5
649.805,931.4
649.937,932.9
650.068,935.7
650.2,937.7
650.331,935.9
650.463,935.8
650.595,936.9
650.726,930.7
650.858,933.3
650.99,932.5
651.121,935.8
651.253,929.7
651.384,933.3
651.516,936.9
651.648,937.5
651.779,935.6
651.911,934.4
652.042,935.7
652.174,935.7
652.306,935.9
652.437,933.2
652.569,935.8
652.7,935.7
652.832,940.8
652.963,936.0
653.095,939.6
653.227,935.7
653.358,936.5
653.49,935.3
653.621,936.5
653.753,936.9
653.884,938.2
654.016,935.7
654.148,936.2
654.279,937.8
654.411,941.9
654.542,934.8
654.674,937.6
654.805,937.4
654.937,939.2
655.068,938.8
655.2,939.1
655.331,936.2
655.463,939.4
655.595,939.8
655.726,938.0
655.858,938.0
655.989,943.6
656.121,938.4
656.252,939.6
656.384,937.1
656.515,935.2
656.647,938.0
656.778,938.3
656.91,936.3
657.041,941.7
657.173,942.2
657.304,939.9
657.436,945.0
657.567,937.8
657.699,941.8
657.83,942.6
657.962,942.2
658.093,936.4
658.225,939.5
658.356,942.4
658.488,944.8
658.619,942.2
658.751,941.0
658.882,942.8
659.013,940.4
659.145,942.3
659.276,942.8
659.408,944.6
659.539,946.2
659.671,940.9
659.802,944.2
659.934,941.8
660.065,942.7
660.197,944.9
660.328,940.1
660.459,941.4
660.591,943.1
660.722,944.3
660.854,939.1
660.985,940.1
661.117,942.8
661.248,941.2
661.38,942.0
661.511,944.5
661.642,940.0
661.774,938.0
661.905,941.1
662.037,943.9
662.168,943.5
662.299,943.0
662.431,941.4
662.562,942.2
662.694,943.4
662.825,943.4
662.957,943.8
663.088,942.7
