nm,Intensity
528.65,1856.1
528.734,1856.6
528.819,1856.35
528.903,1856.4
528.987,1855.65
529.071,1856.5
529.155,1854.95
529.239,1855.95
529.324,1857.1
529.408,1856.5
529.492,1856.15
529.576,1855.05
529.66,1856.4
529.745,1857.2
529.829,1857.1
529.913,1855.7
529.997,1855.9
530.081,1855.7
530.165,1857.45
530.25,1856.6
530.334,1855.45
530.418,1855.65
530.502,1857.5
530.586,1856.7
530.67,1856.65
530.754,1856.5
530.839,1856.6
530.923,1857.65
531.007,1856.95
531.091,1857.75
531.175,1857.7
531.259,1857.4
531.344,1858.0
531.428,1858.85
531.512,1860.7
531.596,1862.7
531.68,1872.85
531.764,1910.85
531.848,2078.2
531.933,2378.2
532.017,2716.7
532.101,2835.1
532.185,2507.4
532.269,2171.25
532.353,1931.3
532.437,1863.6
532.521,1859.0
532.606,1858.6
532.69,1858.65
532.774,1857.6
532.858,1856.6
532.942,1857.45
533.026,1858.0
533.11,1858.0
533.194,1858.15
533.279,1858.65
533.363,1859.05
533.447,1863.0
533.531,1874.55
533.615,1910.8
533.699,1979.05
533.783,2074.25
533.867,2173.35
533.951,2242.75
534.036,2293.4
534.12,2313.35
534.204,2345.6
534.288,2327.65
534.372,2326.1
534.456,2333.75
534.54,2354.45
534.624,2350.6
534.708,2343.3
534.792,2349.0
534.877,2349.95
534.961,2349.4
535.045,2359.8
535.129,2362.5
535.213,2340.2
535.297,2334.05
535.381,2332.1
535.465,2333.85
535.549,2335.55
535.633,2327.6
535.717,2335.15
535.801,2321.15
535.886,2318.35
535.97,2303.7
536.054,2310.3
536.138,2293.55
536.222,2298.8
536.306,2321.5
536.39,2306.85
536.474,2304.3
536.558,2299.15
536.642,2308.6
536.726,2307.9
536.81,2307.25
536.894,2310.7
536.978,2298.95
537.062,2297.4
537.146,2290.0
537.231,2303.0
537.315,2309.35
537.399,2315.0
537.483,2332.7
537.567,2330.25
537.651,2327.7
537.735,2326.1
537.819,2323.3
537.903,2315.7
537.987,2325.45
538.071,2312.55
538.155,2313.7
538.239,2318.55
538.323,2327.95
538.407,2321.05
538.491,2318.7
538.575,2316.75
538.659,2318.55
538.743,2313.15
538.827,2339.6
538.911,2328.5
538.995,2319.45
539.079,2331.0
539.163,2320.25
539.247,2331.35
539.331,2320.8
539.415,2316.8
539.499,2326.75
539.583,2324.3
539.667,2312.6
539.751,2304.85
539.835,2315.55
539.919,2315.2
540.003,2310.55
540.087,2335.15
540.171,2334.15
540.255,2323.25
540.339,2323.45
540.423,2325.95
540.507,2320.35
540.591,2325.4
540.675,2327.05
540.759,2320.0
540.843,2317.5
540.927,2320.65
541.011,2333.0
541.095,2340.55
541.179,2348.0
541.263,2338.65
541.347,2334.25
541.431,2319.6
541.515,2330.1
541.599,2325.55
541.683,2335.55
541.767,2346.75
541.851,2337.85
541.935,2335.15
542.019,2347.6
542.103,2348.45
542.187,2350.35
542.271,2346.95
542.355,2337.5
542.439,2341.4
542.523,2354.95
542.607,2353.45
542.691,2362.2
542.775,2357.8
542.859,2356.6
542.943,2361.05
543.027,2350.25
543.111,2347.45
543.195,2363.8
543.279,2354.8
543.363,2365.65
543.446,2358.05
543.53,2348.15
543.614,2365.0
543.698,2358.05
543.782,2368.9
543.866,2363.55
543.95,2369.75
544.034,2364.3
544.118,2372.6
544.202,2373.1
544.286,2367.9
544.37,2366.3
544.454,2362.55
544.538,2377.95
544.622,2372.9
544.706,2352.8
544.789,2365.4
544.873,2363.8
544.957,2379.85
545.041,2379.6
545.125,2380.55
545.209,2371.3
545.293,2370.55
545.377,2378.85
545.461,2362.8
545.545,2366.45
545.629,2372.15
545.713,2394.8
545.796,2393.95
545.88,2397.3
545.964,2389.85
546.048,2390.2
546.132,2388.15
546.216,2392.8
546.3,2381.85
546.384,2401.8
546.468,2406.3
546.552,2388.5
546.635,2394.95
546.719,2400.55
546.803,2392.8
546.887,2407.6
546.971,2400.85
547.055,2407.55
547.139,2422.1
547.223,2409.4
547.306,2409.95
547.39,2426.3
547.474,2412.75
547.558,2409.75
547.642,2402.75
547.726,2399.6
547.81,2419.05
547.894,2425.25
547.977,2426.9
548.061,2427.75
548.145,2420.7
548.229,2406.8
548.313,2440.15
548.397,2432.0
548.481,2433.2
548.564,2439.9
548.648,2415.8
548.732,2420.2
548.816,2421.8
548.9,2433.15
548.984,2444.55
549.068,2435.35
549.151,2424.45
549.235,2443.75
549.319,2433.5
549.403,2442.95
549.487,2423.7
549.571,2441.95
549.655,2425.7
549.738,2437.9
549.822,2431.65
549.906,2429.15
549.99,2444.25
550.074,2450.15
550.158,2441.4
550.241,2439.15
550.325,2456.9
550.409,2447.15
550.493,2450.75
550.577,2462.35
550.66,2452.4
550.744,2459.8
550.828,2469.7
550.912,2454.75
550.996,2468.2
551.08,2474.1
551.163,2480.5
551.247,2489.55
551.331,2467.45
551.415,2466.8
551.499,2477.5
551.582,2475.6
551.666,2492.8
551.75,2483.65
551.834,2493.9
551.918,2482.85
552.001,2485.75
552.085,2481.55
552.169,2496.25
552.253,2491.9
552.337,2505.15
552.42,2501.35
552.504,2517.0
552.588,2488.2
552.672,2476.2
552.755,2486.7
552.839,2487.05
552.923,2505.55
553.007,2504.3
553.091,2500.6
553.174,2512.95
553.258,2499.1
553.342,2524.2
553.426,2534.55
553.509,2521.9
553.593,2529.95
553.677,2519.25
553.761,2501.05
553.844,2507.45
553.928,2531.1
554.012,2542.0
554.096,2531.75
554.179,2537.15
554.263,2526.35
554.347,2528.8
554.431,2522.4
554.514,2518.85
554.598,2529.05
554.682,2540.1
554.766,2546.4
554.849,2543.0
554.933,2539.6
555.017,2546.1
555.101,2549.75
555.184,2556.0
555.268,2548.15
555.352,2548.0
555.436,2532.05
555.519,2547.1
555.603,2546.95
555.687,2542.05
555.771,2553.35
555.854,2544.4
555.938,2536.4
556.022,2551.95
556.105,2554.6
556.189,2574.25
556.273,2562.05
556.357,2563.7
556.44,2566.65
556.524,2565.65
556.608,2560.75
556.691,2554.85
556.775,2571.65
556.859,2581.45
556.943,2577.25
557.026,2578.35
557.11,2575.4
557.194,2583.95
557.277,2578.95
557.361,2581.65
557.445,2591.95
557.528,2579.25
557.612,2576.25
557.696,2585.9
557.779,2582.75
557.863,2575.5
557.947,2602.4
558.031,2620.0
558.114,2602.55
558.198,2620.75
558.282,2615.1
558.365,2602.55
558.449,2611.2
558.533,2611.65
558.616,2607.65
558.7,2615.7
558.784,2606.15
558.867,2627.5
558.951,2610.15
559.035,2616.85
559.118,2624.5
559.202,2622.4
559.286,2609.95
559.369,2618.05
559.453,2627.1
559.537,2632.7
559.62,2633.9
559.704,2627.0
559.788,2624.1
559.871,2626.35
559.955,2647.75
560.038,2629.05
560.122,2630.05
560.206,2657.9
560.289,2628.75
560.373,2625.1
560.457,2650.9
560.54,2661.6
560.624,2667.1
560.708,2661.85
560.791,2671.5
560.875,2666.35
560.958,2658.6
561.042,2668.9
561.126,2681.9
561.209,2684.6
561.293,2692.4
561.377,2689.95
561.46,2698.1
561.544,2689.7
561.627,2684.1
561.711,2685.4
561.795,2685.1
561.878,2687.4
561.962,2685.15
562.045,2708.3
562.129,2698.95
562.213,2682.6
562.296,2698.6
562.38,2710.3
562.463,2715.55
562.547,2719.25
562.631,2713.05
562.714,2716.95
562.798,2691.85
562.881,2702.95
562.965,2729.6
563.049,2721.8
563.132,2709.45
563.216,2742.05
563.299,2742.3
563.383,2728.2
563.467,2746.55
563.55,2748.45
563.634,2769.05
563.717,2832.85
563.801,2899.3
563.884,3000.5
563.968,3070.2
564.052,3097.7
564.135,3064.0
564.219,2978.7
564.302,2884.65
564.386,2815.65
564.469,2828.4
564.553,2828.9
564.636,2837.15
564.72,2832.1
564.804,2848.25
564.887,2811.95
564.971,2813.1
565.054,2824.55
565.138,2822.85
565.221,2810.25
565.305,2822.7
565.388,2820.0
565.472,2823.25
565.556,2823.3
565.639,2874.65
565.723,2912.9
565.806,2945.95
565.89,3028.55
565.973,3131.5
566.057,3250.7
566.14,3335.8
566.224,3320.4
566.307,3208.2
566.391,3041.5
566.474,2935.45
566.558,2913.6
566.641,2893.3
566.725,2861.7
566.808,2852.05
566.892,2833.05
566.975,2854.0
567.059,2846.8
567.142,2869.2
567.226,2881.6
567.309,2864.4
567.393,2901.7
567.476,2900.25
567.56,2871.85
567.643,2873.4
567.727,2889.1
567.81,2880.3
567.894,2872.0
567.977,2864.75
568.061,2856.75
568.144,2846.45
568.228,2854.65
568.311,2901.9
568.395,2904.65
568.478,2902.0
568.562,2898.4
568.645,2900.9
568.729,2910.6
568.812,2889.7
568.896,2899.6
568.979,2897.75
569.063,2884.3
569.146,2903.3
569.23,2937.15
569.313,2935.1
569.396,2932.35
569.48,2924.2
569.563,2920.9
569.647,2938.25
569.73,2961.55
569.814,2969.75
569.897,2962.85
569.981,2984.0
570.064,2985.1
570.148,2972.25
570.231,2961.9
570.314,2967.6
570.398,3002.65
570.481,3021.75
570.565,3028.15
570.648,2997.4
570.732,3013.05
570.815,3023.85
570.898,3045.1
570.982,3029.2
571.065,3059.45
571.149,3140.95
571.232,3173.4
571.316,3309.1
571.399,3503.1
571.482,3660.85
571.566,3664.15
571.649,3513.5
571.733,3382.5
571.816,3282.55
571.9,3222.55
571.983,3191.85
572.066,3154.0
572.15,3107.6
572.233,3132.25
572.317,3137.2
572.4,3122.85
572.483,3120.8
572.567,3122.0
572.65,3124.8
572.734,3159.95
572.817,3142.9
572.9,3127.15
572.984,3146.1
573.067,3124.75
573.15,3108.8
573.234,3108.5
573.317,3140.5
573.401,3159.7
573.484,3186.9
573.567,3199.45
573.651,3186.6
573.734,3223.15
573.818,3241.8
573.901,3208.8
573.984,3182.8
574.068,3198.0
574.151,3204.6
574.234,3209.05
574.318,3219.4
574.401,3262.3
574.484,3242.65
574.568,3235.05
574.651,3265.75
574.734,3258.6
574.818,3245.95
574.901,3251.6
574.985,3269.7
575.068,3302.75
575.151,3341.4
575.235,3402.6
575.318,3441.45
575.401,3510.4
575.485,3610.3
575.568,3661.15
575.651,3628.1
575.735,3586.85
575.818,3564.9
575.901,3536.9
575.985,3597.15
576.068,3670.7
576.151,3759.65
576.235,3860.15
576.318,3910.55
576.401,3890.75
576.484,3820.15
576.568,3777.1
576.651,3770.9
576.734,3787.1
576.818,3774.35
576.901,3784.9
576.984,3798.85
577.068,3790.1
577.151,3768.35
577.234,3723.1
577.318,3689.5
577.401,3663.25
577.484,3644.15
577.567,3654.0
577.651,3649.05
577.734,3634.65
577.817,3594.3
577.901,3621.1
577.984,3677.55
578.067,3654.95
578.15,3629.8
578.234,3632.95
578.317,3656.3
578.4,3649.75
578.484,3664.15
578.567,3693.15
578.65,3710.05
578.733,3700.1
578.817,3706.65
578.9,3746.35
578.983,3772.55
579.066,3770.05
579.15,3701.1
579.233,3744.85
579.316,3808.85
579.399,3799.3
579.483,3825.7
579.566,3814.5
579.649,3764.25
579.732,3832.7
579.816,3875.1
579.899,3850.35
579.982,3880.85
580.065,3877.35
580.149,3862.0
580.232,3924.5
580.315,3939.4
580.398,3955.65
580.482,3951.8
580.565,3912.4
580.648,3923.35
580.731,3965.9
580.815,3998.7
580.898,4034.5
580.981,4038.25
581.064,4063.6
581.147,4068.4
581.231,4063.65
581.314,3999.45
581.397,4032.0
581.48,4079.7
581.563,4072.8
581.647,4078.45
581.73,4087.95
581.813,4103.9
581.896,4133.15
581.979,4095.05
582.063,4081.9
582.146,4112.0
582.229,4128.65
582.312,4142.65
582.395,4123.35
582.479,4134.85
582.562,4161.9
582.645,4130.9
582.728,4115.6
582.811,4194.75
582.895,4191.75
582.978,4155.4
583.061,4123.85
583.144,4148.3
583.227,4160.55
583.31,4229.45
583.394,4190.8
583.477,4161.95
583.56,4221.25
583.643,4222.55
583.726,4142.5
583.809,4176.95
583.893,4171.8
583.976,4206.4
584.059,4179.35
584.142,4198.9
584.225,4222.4
584.308,4261.4
584.391,4228.1
584.475,4191.05
584.558,4291.35
584.641,4259.0
584.724,4254.9
584.807,4255.1
584.89,4271.6
584.973,4270.5
585.057,4226.05
585.14,4187.8
585.223,4205.65
585.306,4256.75
585.389,4275.2
585.472,4269.55
585.555,4257.0
585.638,4285.6
585.722,4234.85
585.805,4259.25
585.888,4204.85
585.971,4265.35
586.054,4256.7
586.137,4270.15
586.22,4311.7
586.303,4287.7
586.386,4253.8
586.47,4253.05
586.553,4227.9
586.636,4268.5
586.719,4273.6
586.802,4273.5
586.885,4288.85
586.968,4308.15
587.051,4282.6
587.134,4330.45
587.217,4317.45
587.3,4309.5
587.384,4305.05
587.467,4302.2
587.55,4361.2
587.633,4314.95
587.716,4315.35
587.799,4360.6
587.882,4354.0
587.965,4342.85
588.048,4342.75
588.131,4361.55
588.214,4400.25
588.297,4362.8
588.38,4300.15
588.463,4295.0
588.546,4327.65
588.63,4361.1
588.713,4382.45
588.796,4364.05
588.879,4346.0
588.962,4367.1
589.045,4347.25
589.128,4370.35
589.211,4356.1
589.294,4317.75
589.377,4383.9
589.46,4394.8
589.543,4345.35
589.626,4326.65
589.709,4370.2
589.792,4396.05
589.875,4335.0
589.958,4326.55
590.041,4338.05
590.124,4317.7
590.207,4344.15
590.29,4394.65
590.373,4459.0
590.456,4401.25
590.539,4397.1
590.622,4428.05
590.705,4415.75
590.788,4376.2
590.871,4411.85
590.954,4445.5
591.037,4420.05
591.12,4401.75
591.203,4390.0
591.286,4421.05
591.369,4417.85
591.452,4410.05
591.535,4436.5
591.618,4427.4
591.701,4433.25
591.784,4519.2
591.867,4542.3
591.95,4516.0
592.033,4453.4
592.116,4445.75
592.199,4456.55
592.282,4445.45
592.365,4441.0
592.448,4516.65
592.531,4538.3
592.614,4513.6
592.697,4497.15
592.78,4422.05
592.863,4466.2
592.946,4595.1
593.029,4550.6
593.112,4468.15
593.195,4431.35
593.278,4482.9
593.361,4490.2
593.443,4512.2
593.526,4484.45
593.609,4430.5
593.692,4442.35
593.775,4500.4
593.858,4503.85
593.941,4546.85
594.024,4537.7
594.107,4501.2
594.19,4507.3
594.273,4484.5
594.356,4464.9
594.439,4501.75
594.522,4543.2
594.604,4574.6
594.687,4581.75
594.77,4555.65
594.853,4559.6
594.936,4596.0
595.019,4577.15
595.102,4555.95
595.185,4540.5
595.268,4564.4
595.351,4593.1
595.434,4567.8
595.516,4564.95
595.599,4625.75
595.682,4632.55
595.765,4678.35
595.848,4674.75
595.931,4666.25
596.014,4604.15
596.097,4582.3
596.18,4662.05
596.262,4665.05
596.345,4659.55
596.428,4627.8
596.511,4636.05
596.594,4671.6
596.677,4668.4
596.76,4681.25
596.843,4715.8
596.925,4676.45
597.008,4652.0
597.091,4647.0
597.174,4664.0
597.257,4671.05
597.34,4733.95
597.423,4773.55
597.505,4743.95
597.588,4686.7
597.671,4660.0
597.754,4645.1
597.837,4734.2
597.92,4716.3
598.002,4715.85
598.085,4773.1
598.168,4698.75
598.251,4678.05
598.334,4687.35
598.417,4718.3
598.499,4805.2
598.582,4806.75
598.665,4736.2
598.748,4761.2
598.831,4751.65
598.914,4723.5
598.996,4677.1
599.079,4687.45
599.162,4766.3
599.245,4754.6
599.328,4751.85
599.41,4785.3
599.493,4781.95
599.576,4785.15
599.659,4794.15
599.742,4777.1
599.824,4729.65
599.907,4794.45
599.99,4759.8
600.073,4746.25
600.156,4773.35
600.238,4752.55
600.321,4742.7
600.404,4797.05
600.487,4810.05
600.57,4855.85
600.652,4860.5
600.735,4779.05
600.818,4763.45
600.901,4739.55
600.983,4717.0
601.066,4783.75
601.149,4779.85
601.232,4731.95
601.314,4681.5
601.397,4787.65
601.48,4827.85
601.563,4877.25
601.645,4815.0
601.728,4761.65
601.811,4749.55
601.894,4786.9
601.976,4775.7
602.059,4773.15
602.142,4764.15
602.225,4752.75
602.307,4740.3
602.39,4746.9
602.473,4760.9
602.556,4761.05
602.638,4731.65
602.721,4709.95
602.804,4739.5
602.887,4707.75
602.969,4734.45
603.052,4729.3
603.135,4696.4
603.217,4642.4
603.3,4695.85
603.383,4753.6
603.466,4755.45
603.548,4720.75
603.631,4707.75
603.714,4665.0
603.796,4593.85
603.879,4630.25
603.962,4676.4
604.045,4617.25
604.127,4595.0
604.21,4615.75
604.293,4641.05
604.375,4613.4
604.458,4612.0
604.541,4633.95
604.623,4633.2
604.706,4625.75
604.789,4578.75
604.871,4581.1
604.954,4602.5
605.037,4558.3
605.119,4552.25
605.202,4580.2
605.285,4541.95
605.367,4562.75
605.45,4567.6
605.533,4566.65
605.615,4532.8
605.698,4518.65
605.781,4532.5
605.863,4516.15
605.946,4458.9
606.029,4446.7
606.111,4468.1
606.194,4557.95
606.277,4547.9
606.359,4513.4
606.442,4481.2
606.524,4471.8
606.607,4419.6
606.69,4467.4
606.772,4463.8
606.855,4481.9
606.938,4425.95
607.02,4421.8
607.103,4443.3
607.185,4419.45
607.268,4380.35
607.351,4387.1
607.433,4431.55
607.516,4462.05
607.599,4360.85
607.681,4354.9
607.764,4401.0
607.846,4409.4
607.929,4430.25
608.012,4390.95
608.094,4402.05
608.177,4356.3
608.259,4375.45
608.342,4370.55
608.425,4294.9
608.507,4332.0
608.59,4338.75
608.672,4354.55
608.755,4381.7
608.837,4367.75
608.92,4336.3
609.003,4252.25
609.085,4265.6
609.168,4298.3
609.25,4322.8
609.333,4360.0
609.415,4305.5
609.498,4313.75
609.581,4320.9
609.663,4290.55
609.746,4248.8
609.828,4256.15
609.911,4279.0
609.993,4211.15
610.076,4268.75
610.158,4295.45
610.241,4302.15
610.324,4278.15
610.406,4261.7
610.489,4217.95
610.571,4239.55
610.654,4245.6
610.736,4224.0
610.819,4256.8
610.901,4269.6
610.984,4303.3
611.066,4266.0
611.149,4258.3
611.231,4257.65
611.314,4172.95
611.396,4188.9
611.479,4170.0
611.561,4162.8
611.644,4224.45
611.727,4231.35
611.809,4222.65
611.892,4169.8
611.974,4149.7
612.057,4219.15
612.139,4235.45
612.222,4208.3
612.304,4153.4
612.386,4109.6
612.469,4152.55
612.551,4129.4
612.634,4111.4
612.716,4170.1
612.799,4150.05
612.881,4209.55
612.964,4190.55
613.046,4134.9
613.129,4085.8
613.211,4076.8
613.294,4108.75
613.376,4134.2
613.459,4122.4
613.541,4108.7
613.624,4055.05
613.706,4102.8
613.789,4133.0
613.871,4154.9
613.953,4149.45
614.036,4122.35
614.118,4119.35
614.201,4130.8
614.283,4082.3
614.366,4059.0
614.448,4030.4
614.531,4070.3
614.613,4082.7
614.695,4055.25
614.778,4087.55
614.86,4013.35
614.943,4015.5
615.025,4070.45
615.108,4099.95
615.19,4043.45
615.272,4060.25
615.355,4085.7
615.437,4101.3
615.52,4051.25
615.602,4021.25
615.684,4040.3
615.767,4076.1
615.849,4081.1
615.932,4021.9
616.014,4022.4
616.097,4044.6
616.179,4047.2
616.261,4038.55
616.344,4031.15
616.426,4006.1
616.508,3988.05
616.591,3994.75
616.673,4016.75
616.756,4026.3
616.838,4033.45
616.92,4023.75
617.003,4026.45
617.085,4075.75
617.168,4061.2
617.25,4069.65
617.332,4022.95
617.415,3995.4
617.497,3971.0
617.579,3983.4
617.662,4009.3
617.744,4026.2
617.826,4027.15
617.909,4041.7
617.991,4017.95
618.073,4010.65
618.156,3987.6
618.238,4026.0
618.32,4030.9
618.403,4031.9
618.485,4012.2
618.567,4027.65
618.65,4019.9
618.732,3921.85
618.814,3961.7
618.897,4010.6
618.979,4008.1
619.061,3995.45
619.144,4019.05
619.226,4004.15
619.308,3962.3
619.391,3978.9
619.473,3953.15
619.555,4004.1
619.638,4019.9
619.72,4035.55
619.802,4020.9
619.885,4003.3
619.967,4057.0
620.049,3991.0
620.131,3993.35
620.214,4014.65
620.296,3987.1
620.378,3993.0
620.461,4053.6
620.543,4028.3
620.625,3962.1
620.707,3984.55
620.79,4009.8
620.872,3987.35
620.954,3965.85
621.037,4001.3
621.119,3963.75
621.201,3997.6
621.283,4031.15
621.366,4037.0
621.448,4021.15
621.53,4023.8
621.612,4039.65
621.695,4083.45
621.777,4090.05
621.859,4031.75
621.941,3994.4
622.024,4052.0
622.106,4066.3
622.188,4084.5
622.27,4120.95
622.353,4136.35
622.435,4143.15
622.517,4159.2
622.599,4133.0
622.682,4053.55
622.764,3999.5
622.846,3968.5
622.928,3986.35
623.01,4019.55
623.093,4003.45
623.175,4018.05
623.257,3976.35
623.339,3897.1
623.422,3933.4
623.504,3912.55
623.586,3954.9
623.668,3982.2
623.75,4013.5
623.833,3983.65
623.915,3939.5
623.997,3962.1
624.079,3901.05
624.161,3906.5
624.244,3936.25
624.326,3937.5
624.408,3975.9
624.49,4020.35
624.572,3998.5
624.654,3965.35
624.737,3971.7
624.819,3957.05
624.901,3923.35
624.983,3917.55
625.065,3926.8
625.147,3920.75
625.23,3908.05
625.312,3928.55
625.394,3974.25
625.476,3977.3
625.558,3940.95
625.64,3939.75
625.723,3966.95
625.805,3914.25
625.887,3929.1
625.969,3984.25
626.051,4022.45
626.133,4050.9
626.215,4066.6
626.298,4141.85
626.38,4166.85
626.462,4214.0
626.544,4371.25
626.626,4561.35
626.708,4805.2
626.79,5071.2
626.872,5389.05
626.955,5786.35
627.037,6090.4
627.119,6418.0
627.201,6527.8
627.283,6438.4
627.365,6231.9
627.447,6071.15
627.529,5934.6
627.611,5775.75
627.693,5637.65
627.776,5541.0
627.858,5431.8
627.94,5326.1
628.022,5318.55
628.104,5454.15
628.186,5637.3
628.268,5873.8
628.35,6093.05
628.432,6390.85
628.514,6717.15
628.596,6738.65
628.678,6423.55
628.761,6043.45
628.843,5674.25
628.925,5469.1
629.007,5412.1
629.089,5394.6
629.171,5371.9
629.253,5296.75
629.335,5258.95
629.417,5110.95
629.499,4951.45
629.581,4879.25
629.663,4875.1
629.745,4869.35
629.827,4854.15
629.909,4760.9
629.991,4720.05
630.073,4716.75
630.155,4692.55
630.237,4696.8
630.319,4721.35
630.401,4670.3
630.483,4582.55
630.565,4561.45
630.647,4600.7
630.73,4494.4
630.812,4357.75
630.894,4310.2
630.976,4269.2
631.058,4203.5
631.14,4135.4
631.222,4144.4
631.304,4080.5
631.386,4037.0
631.468,4068.85
631.55,4010.1
631.632,3913.85
631.714,3909.4
631.796,3947.8
631.877,3987.0
631.959,3975.4
632.041,3948.4
632.123,3954.15
632.205,3913.3
632.287,3893.1
632.369,3941.6
632.451,3964.8
632.533,3958.0
632.615,3939.95
632.697,3937.35
632.779,3908.5
632.861,3887.05
632.943,3920.95
633.025,3943.2
633.107,3960.75
633.189,3923.3
633.271,3885.65
633.353,3867.7
633.435,3908.9
633.517,3901.55
633.599,3921.45
633.681,3906.85
633.763,3902.95
633.844,3882.45
633.926,3859.35
634.008,3851.65
634.09,3902.05
634.172,3916.85
634.254,3901.6
634.336,3870.1
634.418,3859.1
634.5,3902.65
634.582,3871.65
634.664,3909.8
634.746,3840.55
634.827,3825.8
634.909,3861.5
634.991,3859.45
635.073,3806.95
635.155,3846.25
635.237,3923.9
635.319,3913.8
635.401,3851.7
635.483,3777.45
635.564,3750.75
635.646,3799.1
635.728,3812.6
635.81,3825.95
635.892,3845.25
635.974,3843.95
636.056,3816.25
636.138,3811.85
636.219,3839.15
636.301,3811.65
636.383,3830.8
636.465,3819.3
