cm-1,Intensity
-123.878,1854.55
-120.866,1854.0
-117.855,1856.05
-114.845,1854.75
-111.836,1854.4
-108.828,1854.6
-105.821,1854.55
-102.815,1853.95
-99.8104,1853.9
-96.8065,1856.15
-93.8036,1854.2
-90.8016,1855.15
-87.8007,1856.3
-84.8008,1857.35
-81.8019,1854.8
-78.8039,1854.3
-75.807,1855.55
-72.8111,1855.05
-69.8161,1856.5
-66.8222,1855.7
-63.8293,1854.95
-60.8373,1855.85
-57.8464,1855.9
-54.8564,1854.05
-51.8675,1855.9
-48.8795,1854.4
-45.8926,1856.5
-42.9066,1855.25
-39.9216,1857.05
-36.9377,1856.65
-33.9547,1858.2
-30.9727,1857.05
-27.9917,1857.5
-25.0117,1859.9
-22.0326,1860.35
-19.0546,1862.45
-16.0776,1875.6
-13.1015,1928.15
-10.1265,2126.8
-7.1524,2498.55
-4.17932,2946.9
-1.20723,3160.2
1.76388,2966.5
4.734,2386.4
7.70313,1948.15
10.6713,1868.1
13.6384,1857.0
16.6046,1857.9
19.5698,1858.85
22.534,1858.15
25.4972,1857.1
28.4595,1856.75
31.4207,1856.4
34.381,1857.7
37.3403,1858.3
40.2986,1860.25
43.256,1862.05
46.2123,1873.05
49.1677,1901.7
52.1221,1973.7
55.0755,2137.95
58.0279,2370.1
60.9794,2588.85
63.9299,2791.55
66.8794,2920.1
69.8279,3017.5
72.7754,3065.35
75.722,3070.1
78.6676,3046.4
81.6122,3049.0
84.5559,3036.15
87.4985,3045.5
90.4402,3076.25
93.381,3124.85
96.3207,3113.4
99.2595,3105.65
102.197,3110.6
105.134,3123.45
108.07,3133.75
111.005,3156.85
113.939,3159.9
116.872,3167.15
119.804,3184.0
122.735,3180.35
125.665,3152.85
128.594,3166.55
131.522,3163.65
134.449,3183.25
137.375,3177.4
140.301,3192.75
143.225,3157.8
146.148,3181.2
149.07,3194.35
151.992,3192.4
154.912,3186.05
157.832,3195.6
160.75,3201.8
163.668,3191.3
166.584,3187.3
169.5,3178.05
172.414,3186.45
175.328,3225.4
178.241,3235.7
181.153,3225.0
184.063,3256.3
186.973,3282.75
189.882,3267.85
192.79,3260.6
195.697,3277.1
198.603,3269.25
201.508,3257.0
204.412,3252.25
207.315,3264.1
210.217,3291.7
213.119,3288.3
216.019,3289.6
218.918,3260.45
221.816,3264.5
224.714,3267.45
227.61,3263.0
230.506,3280.6
233.4,3285.3
236.294,3295.95
239.187,3306.85
242.078,3362.65
244.969,3306.9
247.859,3304.1
250.748,3330.6
253.636,3299.8
256.523,3321.5
259.409,3349.35
262.294,3398.45
265.178,3377.25
268.061,3398.6
270.943,3427.7
273.824,3421.4
276.705,3427.55
279.584,3405.5
282.463,3416.05
285.34,3430.25
288.217,3422.8
291.092,3432.85
293.967,3465.75
296.841,3436.95
299.713,3473.15
302.585,3506.65
305.456,3519.9
308.326,3516.4
311.195,3500.85
314.063,3485.45
316.93,3495.85
319.797,3466.25
322.662,3519.4
325.526,3520.4
328.389,3511.9
331.252,3491.85
334.113,3510.3
336.974,3505.55
339.834,3540.35
342.692,3544.25
345.55,3569.95
348.407,3582.55
351.263,3591.1
354.118,3535.65
356.972,3570.95
359.825,3604.95
362.677,3638.1
365.529,3641.6
368.379,3636.1
371.228,3608.75
374.077,3626.3
376.924,3660.55
379.771,3678.9
382.616,3698.35
385.461,3659.45
388.305,3651.4
391.148,3671.85
393.99,3679.65
396.831,3678.95
399.671,3744.6
402.51,3736.65
405.348,3766.0
408.186,3756.8
411.022,3734.3
413.858,3786.6
416.692,3769.8
419.526,3779.45
422.359,3836.25
425.19,3813.2
428.021,3809.35
430.851,3847.3
433.68,3872.3
436.508,3882.3
439.335,3826.7
442.162,3858.75
444.987,3850.45
447.811,3841.4
450.635,3841.2
453.458,3847.05
456.279,3868.6
459.1,3912.4
461.92,3918.5
464.739,3928.75
467.557,3931.7
470.374,3968.45
473.19,3979.55
476.005,3952.75
478.82,3935.6
481.633,3924.25
484.445,3929.1
487.257,3943.3
490.068,3967.25
492.878,3979.4
495.686,3956.0
498.494,3967.1
501.301,4023.6
504.107,4074.7
506.913,4045.0
509.717,4036.3
512.52,4052.65
515.323,4072.95
518.124,4041.75
520.925,4064.0
523.725,4033.65
526.524,4003.15
529.322,4041.55
532.119,4083.45
534.915,4133.55
537.71,4136.35
540.504,4152.1
543.298,4170.4
546.09,4212.6
548.882,4251.0
551.673,4219.65
554.462,4226.35
557.251,4241.45
560.039,4232.2
562.826,4243.35
565.613,4249.1
568.398,4312.6
571.182,4246.9
573.966,4264.75
576.748,4226.3
579.53,4274.0
582.311,4228.7
585.091,4241.85
587.87,4309.75
590.648,4340.65
593.425,4350.85
596.201,4344.7
598.977,4277.45
601.751,4270.45
604.525,4316.2
607.298,4268.05
610.069,4267.85
612.84,4291.85
615.61,4310.45
618.38,4315.95
621.148,4301.55
623.915,4257.8
626.682,4281.8
629.447,4333.6
632.212,4363.2
634.976,4355.4
637.739,4453.0
640.501,4427.55
643.262,4408.55
646.022,4477.35
648.781,4485.8
651.54,4482.5
654.297,4500.5
657.054,4523.95
659.81,4536.55
662.565,4631.3
665.319,4620.65
668.072,4544.65
670.824,4527.8
673.575,4593.55
676.326,4582.75
679.075,4598.05
681.824,4629.0
684.572,4632.65
687.319,4661.2
690.065,4650.15
692.81,4612.15
695.554,4639.95
698.298,4605.1
701.04,4607.95
703.782,4639.25
706.522,4625.5
709.262,4630.35
712.001,4622.95
714.739,4640.05
717.477,4658.0
720.213,4634.85
722.948,4630.05
725.683,4641.2
728.417,4671.8
731.15,4667.2
733.882,4677.55
736.613,4710.1
739.343,4614.6
742.072,4639.15
744.801,4753.65
747.528,4814.8
750.255,4779.0
752.981,4721.5
755.706,4772.35
758.43,4705.7
761.153,4737.4
763.875,4770.05
766.597,4812.9
769.317,4819.75
772.037,4875.85
774.756,4935.5
777.474,4871.05
780.191,4813.6
782.907,4839.5
785.623,4870.2
788.337,4862.6
791.051,4819.0
793.764,4914.3
796.475,4899.15
799.186,4926.0
801.897,4932.65
804.606,4929.35
807.314,4987.35
810.022,4996.45
812.729,4992.65
815.434,4970.85
818.139,4994.2
820.844,5014.85
823.547,5016.85
826.249,4977.95
828.951,5038.4
831.651,5062.55
834.351,5007.95
837.05,5010.4
839.748,5010.75
842.445,5012.4
845.142,5014.4
847.837,4978.0
850.532,4944.4
853.225,5004.85
855.918,4975.2
858.61,5025.5
861.302,5060.9
863.992,5085.5
866.681,5070.15
869.37,5077.35
872.058,5091.3
874.745,5061.75
877.431,5076.95
880.116,5101.15
882.8,5076.4
885.484,5141.9
888.166,5123.95
890.848,5112.6
893.529,5112.3
896.209,5112.75
898.888,5188.65
901.566,5168.85
904.244,5125.7
906.921,5207.2
909.596,5198.75
912.271,5270.5
914.945,5366.85
917.619,5350.1
920.291,5306.05
922.963,5295.0
925.633,5362.5
928.303,5411.85
930.972,5373.55
933.64,5261.8
936.308,5339.05
938.974,5352.2
941.64,5368.0
944.304,5412.6
946.968,5366.6
949.631,5366.7
952.294,5391.3
954.955,5512.7
957.615,5452.25
960.275,5385.1
962.934,5391.15
965.592,5445.05
968.249,5444.9
970.905,5423.75
973.561,5420.2
976.215,5483.9
978.869,5457.5
981.522,5406.9
984.174,5402.95
986.826,5433.75
989.476,5432.75
992.126,5482.4
994.774,5503.1
997.422,5519.35
1000.07,5516.95
1002.72,5537.35
1005.36,5488.85
1008.01,5502.95
1010.65,5456.25
1013.29,5501.2
1015.93,5551.25
1018.58,5568.9
1021.22,5536.65
1023.86,5525.6
1026.49,5580.35
1029.13,5634.5
1031.77,5687.3
1034.4,5674.9
1037.04,5594.0
1039.67,5661.1
1042.31,5715.0
1044.94,5695.75
1047.57,5646.8
1050.2,5657.2
1052.83,5760.95
1055.46,5774.85
1058.09,5769.65
1060.72,5848.45
1063.35,5855.6
1065.97,5832.0
1068.6,5787.3
1071.22,5736.25
1073.85,5838.55
1076.47,5856.25
1079.09,5819.35
1081.71,5827.05
1084.33,5808.35
1086.95,5809.45
1089.57,5946.65
1092.19,5882.15
1094.81,5890.35
1097.42,5825.4
1100.04,5805.9
1102.65,5785.0
1105.27,5807.85
1107.88,5842.55
1110.49,5908.2
1113.1,5881.55
1115.71,5867.95
1118.32,5941.8
1120.93,5949.6
1123.54,5875.0
1126.15,5860.05
1128.75,5911.95
1131.36,5986.7
1133.97,5938.35
1136.57,5875.6
1139.17,5797.6
1141.77,5867.05
1144.38,5900.95
1146.98,5932.75
1149.58,6001.75
1152.18,6056.35
1154.77,6050.9
1157.37,6055.25
1159.97,6060.4
1162.56,6022.8
1165.16,6077.4
1167.75,6147.65
1170.35,6105.45
1172.94,6084.95
1175.53,6127.2
1178.12,6157.75
1180.71,6212.25
1183.3,6242.65
1185.89,6191.5
1188.48,6232.5
1191.06,6229.25
1193.65,6265.25
1196.23,6299.8
1198.82,6245.2
1201.4,6353.5
1203.99,6363.2
1206.57,6295.55
1209.15,6283.55
1211.73,6187.7
1214.31,6250.9
1216.89,6516.45
1219.46,6486.2
1222.04,6251.75
1224.62,6157.2
1227.19,6282.0
1229.77,6286.75
1232.34,6297.6
1234.92,6417.75
1237.49,6328.05
1240.06,6287.1
1242.63,6377.15
1245.2,6363.35
1247.77,6303.55
1250.34,6318.75
1252.9,6227.2
1255.47,6360.0
1258.04,6380.65
1260.6,6394.55
1263.17,6385.7
1265.73,6450.85
1268.29,6390.05
1270.85,6289.65
1273.41,6306.5
1275.97,6453.15
1278.53,6433.8
1281.09,6479.1
1283.65,6544.7
1286.21,6543.75
1288.76,6582.25
1291.32,6648.3
1293.87,6710.0
1296.43,6636.55
1298.98,6674.65
1301.53,6807.05
1304.08,6791.75
1306.63,6720.25
1309.18,6740.65
1311.73,6749.25
1314.28,6716.7
1316.83,6755.15
1319.38,6820.0
1321.92,6835.25
1324.47,6853.6
1327.01,6806.65
1329.55,6815.65
1332.1,6876.35
1334.64,6896.75
1337.18,6853.65
1339.72,6770.3
1342.26,6836.35
1344.8,6865.9
1347.34,6834.75
1349.87,6867.6
1352.41,6878.8
1354.95,6815.4
1357.48,6665.3
1360.01,6650.75
1362.55,6787.3
1365.08,6734.15
1367.61,6740.8
1370.14,6809.5
1372.67,6721.6
1375.2,6585.65
1377.73,6607.35
1380.26,6666.45
1382.78,6623.95
1385.31,6684.6
1387.84,6670.6
1390.36,6723.5
1392.88,6810.1
1395.41,6705.55
1397.93,6752.7
1400.45,6848.5
1402.97,6806.8
1405.49,6937.4
1408.01,6855.4
1410.53,6765.45
1413.05,6834.55
1415.56,6887.25
1418.08,6890.75
1420.59,6905.05
1423.11,6964.85
1425.62,7018.0
1428.14,7023.1
1430.65,7111.9
1433.16,7126.65
1435.67,7018.0
1438.18,6960.4
1440.69,7017.2
1443.2,7149.45
1445.7,7265.95
1448.21,7221.2
1450.72,7143.3
1453.22,7099.85
1455.72,7084.05
1458.23,7160.15
1460.73,7155.9
1463.23,7139.85
1465.73,7156.95
1468.23,7292.95
1470.73,7208.15
1473.23,7134.9
1475.73,6995.5
1478.23,6979.35
1480.72,6919.3
1483.22,7050.3
1485.72,7102.8
1488.21,7054.7
1490.7,7013.9
1493.2,7054.3
1495.69,7031.95
1498.18,7046.9
1500.67,7011.4
1503.16,6936.2
1505.65,6924.55
1508.14,6973.2
1510.62,6958.8
1513.11,6950.5
1515.59,7118.15
1518.08,7131.9
1520.56,7068.9
1523.05,7034.95
1525.53,7021.0
1528.01,7039.1
1530.49,7068.25
1532.97,7139.1
1535.45,7189.9
1537.93,7241.9
1540.41,7185.7
1542.89,7193.55
1545.36,7161.45
1547.84,7230.8
1550.31,7523.65
1552.79,7411.8
1555.26,7266.2
1557.73,7257.75
1560.21,7368.3
1562.68,7513.35
1565.15,7510.55
1567.62,7330.9
1570.09,7312.6
1572.56,7502.2
1575.02,7513.25
1577.49,7475.4
1579.95,7453.4
1582.42,7499.8
1584.88,7444.55
1587.35,7413.25
1589.81,7442.3
1592.27,7432.1
1594.73,7415.9
1597.19,7370.2
1599.65,7195.45
1602.11,7264.45
1604.57,7312.5
1607.03,7382.65
1609.49,7387.6
1611.94,7413.15
1614.4,7333.65
1616.85,7346.8
1619.31,7294.75
1621.76,7222.4
1624.21,7234.15
1626.66,7350.0
1629.11,7261.4
1631.56,7294.4
1634.01,7235.85
1636.46,7179.4
1638.91,7151.55
1641.36,7150.45
1643.8,7163.4
1646.25,7257.75
1648.69,7310.5
1651.14,7340.3
1653.58,7247.95
1656.02,7163.35
1658.46,7206.4
1660.9,7242.3
1663.35,7364.05
1665.78,7308.05
1668.22,7102.65
1670.66,7188.35
1673.1,7366.05
1675.54,7415.8
1677.97,7322.5
1680.41,7282.45
1682.84,7346.7
1685.27,7456.2
1687.71,7417.15
1690.14,7289.95
1692.57,7292.0
1695.0,7290.7
1697.43,7358.45
1699.86,7351.4
1702.29,7326.1
1704.71,7316.15
1707.14,7300.9
1709.57,7399.6
1711.99,7386.75
1714.42,7276.15
1716.84,7243.85
1719.26,7236.85
1721.69,7321.45
1724.11,7466.45
1726.53,7266.3
1728.95,7096.7
1731.37,7162.1
1733.79,7349.95
1736.21,7308.5
1738.62,7228.25
1741.04,7210.4
1743.46,7273.45
1745.87,7294.6
1748.28,7337.5
1750.7,7352.1
1753.11,7199.8
1755.52,7269.85
1757.93,7219.0
1760.34,7175.8
1762.75,7336.1
1765.16,7320.15
1767.57,7300.5
1769.98,7233.95
1772.39,7284.3
1774.79,7202.2
1777.2,7373.6
1779.6,7447.1
1782.01,7411.65
1784.41,7394.2
1786.81,7397.15
1789.21,7334.15
1791.62,7356.0
1794.02,7428.3
1796.41,7405.25
1798.81,7310.0
1801.21,7362.3
1803.61,7405.7
1806.01,7417.55
1808.4,7512.75
1810.8,7569.9
1813.19,7443.2
1815.59,7490.1
1817.98,7487.8
1820.37,7509.1
1822.76,7380.4
1825.15,7371.35
1827.54,7444.2
1829.93,7471.3
1832.32,7486.2
1834.71,7454.5
1837.1,7518.65
1839.48,7499.0
1841.87,7536.75
1844.25,7533.2
1846.64,7438.9
1849.02,7373.2
1851.4,7439.35
1853.79,7568.4
1856.17,7601.4
1858.55,7488.2
1860.93,7462.0
1863.31,7505.45
1865.69,7461.95
1868.06,7577.0
1870.44,7507.6
1872.82,7542.65
1875.19,7536.75
1877.57,7595.1
1879.94,7491.55
1882.31,7473.85
1884.69,7561.75
1887.06,7476.9
1889.43,7453.15
1891.8,7562.05
1894.17,7545.55
1896.54,7586.55
1898.91,7594.1
1901.28,7595.45
1903.64,7662.55
1906.01,7630.0
1908.38,7521.9
1910.74,7399.05
1913.1,7507.45
1915.47,7671.85
1917.83,7647.2
1920.19,7602.95
1922.55,7527.2
1924.91,7676.2
1927.27,7737.7
1929.63,7649.25
1931.99,7675.65
1934.35,7670.6
1936.71,7717.65
1939.06,7712.8
1941.42,7629.3
1943.77,7674.05
1946.13,7840.6
1948.48,7742.3
1950.83,7697.1
1953.19,7784.1
1955.54,7842.5
1957.89,7794.0
1960.24,7731.85
1962.59,7736.3
1964.93,7864.1
1967.28,7859.15
1969.63,7793.2
1971.98,7813.8
1974.32,7746.45
1976.67,7794.45
1979.01,7825.7
1981.35,7903.05
1983.7,7886.45
1986.04,7783.3
1988.38,7821.25
1990.72,7788.75
1993.06,7791.6
1995.4,7910.2
1997.74,7861.5
2000.08,7852.2
2002.41,7780.75
2004.75,7754.65
2007.09,7922.45
2009.42,7934.55
2011.75,7991.5
2014.09,7939.2
2016.42,7912.1
2018.75,7920.85
2021.08,8043.35
2023.42,8143.65
2025.75,8058.15
2028.08,7981.85
2030.4,7950.45
2032.73,7966.6
2035.06,7970.6
2037.39,7886.65
2039.71,8006.8
2042.04,8054.85
2044.36,7956.35
2046.69,8011.2
2049.01,7990.8
2051.33,8007.45
2053.65,8087.0
2055.97,8080.5
2058.29,8187.75
2060.61,8323.1
2062.93,8185.3
2065.25,8122.65
2067.57,8274.45
2069.88,8419.15
2072.2,8283.55
2074.52,8075.4
2076.83,8002.35
2079.15,8148.0
2081.46,8274.55
2083.77,8266.45
2086.08,8367.85
2088.39,8316.05
2090.7,8200.45
2093.01,8294.1
2095.32,8270.1
2097.63,8253.25
2099.94,8285.5
2102.25,8359.9
2104.55,8312.9
2106.86,8399.55
2109.16,8324.75
2111.47,8315.3
2113.77,8299.8
2116.08,8317.25
2118.38,8411.7
2120.68,8374.7
2122.98,8372.1
2125.28,8299.75
2127.58,8271.8
2129.88,8431.05
2132.18,8428.05
2134.47,8315.75
2136.77,8360.8
2139.07,8575.1
2141.36,8601.25
2143.66,8420.25
2145.95,8284.95
2148.24,8339.9
2150.54,8486.25
2152.83,8370.25
2155.12,8447.7
2157.41,8526.7
2159.7,8512.8
2161.99,8485.45
2164.28,8502.65
2166.57,8531.6
2168.85,8469.2
2171.14,8438.1
2173.43,8428.75
2175.71,8444.9
2178.0,8598.1
2180.28,8779.1
2182.56,8702.5
2184.84,8580.2
2187.13,8587.9
2189.41,8703.15
2191.69,8589.0
2193.97,8622.9
2196.25,8641.85
2198.52,8679.6
2200.8,8694.1
2203.08,8603.7
2205.36,8713.7
2207.63,8809.65
2209.91,8772.1
2212.18,8875.55
2214.45,8930.2
2216.73,8829.15
2219.0,8851.7
2221.27,8846.55
2223.54,8614.85
2225.81,8621.3
2228.08,8710.8
2230.35,8690.7
2232.62,8652.1
2234.89,8949.3
2237.15,8925.25
2239.42,8848.55
2241.68,8862.7
2243.95,8825.7
2246.21,8751.35
2248.48,8780.35
2250.74,8840.5
2253.0,8799.8
2255.26,8841.65
2257.52,8945.0
2259.78,8915.3
2262.04,8950.85
2264.3,8776.8
2266.56,8714.3
2268.82,8753.65
2271.07,8885.85
2273.33,8997.5
2275.58,9046.45
2277.84,8929.05
2280.09,8712.25
2282.35,8752.1
2284.6,8719.3
2286.85,8744.45
2289.1,9029.65
2291.35,9088.25
2293.6,8891.25
2295.85,8768.0
2298.1,8847.3
2300.35,9155.6
2302.6,9194.55
2304.84,9086.45
2307.09,9021.7
2309.33,9131.1
2311.58,9134.8
2313.82,9185.35
2316.07,9209.5
2318.31,8980.9
2320.55,8872.4
2322.79,8960.85
2325.03,9287.05
2327.27,9212.8
2329.51,9095.3
2331.75,9243.8
2333.99,9214.6
2336.23,9267.45
2338.46,9286.2
2340.7,9278.8
2342.93,9250.55
2345.17,9290.2
2347.4,9346.75
2349.64,9202.35
2351.87,9185.6
2354.1,9088.45
2356.33,9240.35
2358.56,9390.9
2360.79,9516.15
2363.02,9433.25
2365.25,9121.6
2367.48,9098.3
2369.71,9232.3
2371.93,9186.1
2374.16,9244.1
2376.38,9211.5
2378.61,9107.55
2380.83,9120.05
2383.06,9189.9
2385.28,9384.4
2387.5,9403.45
2389.72,9291.4
2391.94,9165.8
2394.16,9249.1
2396.38,9300.55
2398.6,9321.65
2400.82,9387.9
2403.04,9350.85
2405.26,9249.2
2407.47,9245.9
2409.69,9158.35
2411.9,9341.25
2414.12,9634.75
2416.33,9613.4
2418.54,9404.3
2420.76,9414.95
2422.97,9428.3
2425.18,9458.95
2427.39,9595.7
2429.6,9640.2
2431.81,9549.9
2434.02,9645.7
2436.22,9564.1
2438.43,9511.95
2440.64,9483.05
2442.84,9490.15
2445.05,9464.4
2447.25,9418.0
2449.46,9558.75
2451.66,9560.35
2453.86,9431.25
2456.06,9381.1
2458.27,9669.7
2460.47,9754.85
2462.67,9685.25
2464.87,9714.15
2467.06,9642.55
2469.26,9646.35
2471.46,9575.5
2473.66,9430.35
2475.85,9477.95
2478.05,9584.1
2480.24,9572.25
2482.44,9671.35
2484.63,9658.3
2486.82,9603.65
2489.02,9484.5
2491.21,9400.5
2493.4,9566.95
2495.59,9620.3
2497.78,9505.7
2499.97,9579.4
2502.16,9784.55
2504.34,9735.1
2506.53,9394.05
2508.72,9524.35
2510.9,9709.85
2513.09,9707.75
2515.27,9600.85
2517.46,9596.15
2519.64,9437.0
2521.82,9477.8
2524.0,9744.4
2526.19,9649.8
2528.37,9599.0
2530.55,9518.05
2532.73,9518.05
2534.9,9551.05
2537.08,9454.75
2539.26,9510.15
2541.44,9680.75
2543.61,9667.95
2545.79,9648.4
2547.96,9641.25
2550.14,9675.85
2552.31,9742.2
2554.48,9689.85
2556.66,9754.25
2558.83,9799.4
2561.0,9558.45
2563.17,9698.9
2565.34,9842.8
2567.51,9588.65
2569.68,9474.6
2571.85,9730.3
2574.01,9660.1
2576.18,9637.2
2578.35,9741.7
2580.51,9791.65
2582.68,9781.45
2584.84,9713.4
2587.0,9566.5
2589.17,9636.7
2591.33,9933.45
2593.49,9899.7
2595.65,9724.9
2597.81,9811.05
2599.97,9869.95
2602.13,9765.55
2604.29,9778.0
2606.45,9615.85
2608.6,9659.3
2610.76,9681.3
2612.92,9830.55
2615.07,9929.75
2617.23,9831.55
2619.38,9678.75
2621.53,9855.15
2623.69,9825.75
2625.84,9755.5
2627.99,9661.1
2630.14,9718.15
2632.29,9695.5
2634.44,9804.65
2636.59,9732.55
2638.74,9787.05
2640.89,9640.05
2643.03,9578.5
2645.18,9761.75
2647.33,9819.95
2649.47,9804.2
2651.62,9763.2
2653.76,9682.5
2655.9,9798.7
2658.05,9916.05
2660.19,9665.35
2662.33,9479.15
2664.47,9623.35
2666.61,9833.4
2668.75,9890.0
2670.89,9856.55
2673.03,9843.9
2675.17,9875.15
2677.3,9640.8
2679.44,9562.2
2681.58,9762.4
2683.71,9685.75
2685.84,9559.4
2687.98,9667.4
2690.11,9907.35
2692.25,10048.8
2694.38,10033.5
2696.51,10020.3
2698.64,9695.0
2700.77,9615.1
2702.9,9919.45
2705.03,9994.3
2707.16,9828.15
2709.29,9792.1
2711.41,9650.6
2713.54,9794.25
2715.67,9869.0
2717.79,9865.2
2719.92,9864.85
2722.04,9632.0
2724.16,9747.1
2726.29,9867.75
2728.41,9941.95
2730.53,9842.4
2732.65,9677.75
2734.77,9706.25
2736.89,9810.9
2739.01,9686.7
2741.13,9548.6
2743.25,9768.5
2745.36,9779.7
2747.48,9877.3
2749.6,9849.0
2751.71,9676.8
2753.83,9644.9
2755.94,9720.25
2758.06,9764.8
2760.17,9641.0
2762.28,9830.4
2764.39,9853.6
2766.5,9713.6
2768.61,9661.75
2770.72,9626.35
2772.83,9551.8
2774.94,9517.45
2777.05,9548.6
2779.16,9755.9
2781.27,9518.7
2783.37,9370.25
2785.48,9544.75
2787.58,9676.9
2789.69,9624.4
2791.79,9584.7
2793.89,9604.75
2796.0,9661.95
2798.1,9495.6
2800.2,9572.1
2802.3,9665.2
2804.4,9761.65
2806.5,9703.25
2808.6,9682.6
2810.7,9522.9
2812.8,9716.1
2814.89,9768.35
2816.99,9774.0
2819.09,9857.45
2821.18,9722.9
2823.28,9493.9
2825.37,9532.25
2827.46,9673.35
2829.56,9646.95
2831.65,9659.75
2833.74,9716.0
2835.83,9727.2
2837.92,9644.6
2840.01,9666.45
2842.1,9734.55
2844.19,9881.15
2846.28,9622.65
2848.37,9790.15
2850.45,9885.35
2852.54,9930.85
2854.63,9904.0
2856.71,9723.05
2858.8,9659.5
2860.88,9563.25
2862.96,9632.15
2865.05,9932.4
2867.13,9844.35
2869.21,9730.0
2871.29,9794.0
2873.37,10013.0
2875.45,9858.7
2877.53,9730.15
2879.61,9772.85
2881.69,10011.4
2883.76,9971.85
2885.84,9833.7
2887.92,9759.45
2889.99,9755.35
2892.07,9761.95
2894.14,9818.1
2896.22,9624.7
2898.29,9688.25
2900.36,9771.6
2902.43,9676.85
2904.5,9607.55
2906.58,9365.5
2908.65,9690.1
2910.72,9776.55
2912.78,9904.5
2914.85,9943.5
2916.92,9870.8
2918.99,9688.5
2921.05,9618.3
2923.12,9746.6
2925.19,9532.1
2927.25,9621.95
2929.32,9774.5
2931.38,9771.05
2933.44,9775.75
2935.5,9673.4
2937.57,9558.65
2939.63,9742.45
2941.69,9823.7
2943.75,9803.35
2945.81,9819.1
2947.87,9886.6
2949.93,9714.55
2951.98,9604.85
2954.04,9412.35
2956.1,9289.35
2958.15,9554.45
2960.21,9683.8
2962.26,9722.0
2964.32,9713.4
2966.37,9417.35
2968.42,9428.65
2970.48,9486.6
2972.53,9400.1
2974.58,9546.5
2976.63,9499.75
2978.68,9620.85
2980.73,9796.05
2982.78,9670.6
2984.83,9538.3
2986.87,9437.5
2988.92,9263.45
2990.97,9067.4
2993.01,9056.45
2995.06,9401.35
2997.1,9395.0
2999.15,9398.95
3001.19,9380.05
3003.24,9372.95
3005.28,9437.5
3007.32,9250.3
3009.36,9174.85
3011.4,9344.3
3013.44,9265.4
3015.48,9194.45
3017.52,9415.0
3019.56,9464.9
3021.6,9215.95
3023.63,9163.7
3025.67,9132.95
3027.71,9106.95
3029.74,9120.5
3031.78,9123.25
3033.81,9204.9
3035.85,9127.8
3037.88,9126.8
3039.91,9419.25
3041.94,9354.0
3043.97,9179.3
3046.01,9113.05
3048.04,8957.2
3050.07,8996.65
3052.09,8964.25
3054.12,9076.9
3056.15,9055.7
3058.18,8846.6
3060.2,8953.3
3062.23,9135.75
3064.26,9091.15
3066.28,9210.8
3068.31,9270.8
3070.33,8983.95
3072.35,8978.7
3074.38,9119.05
3076.4,9063.2
