nm,Intensity
526.508,830.2
526.645,829.7
526.782,829.0
526.919,831.0
527.055,831.1
527.192,828.5
527.329,830.3
527.465,829.3
527.602,829.1
527.739,830.1
527.875,829.9
528.012,831.2
528.149,832.1
528.285,830.3
528.422,829.8
528.558,829.5
528.695,830.0
528.832,827.8
528.968,830.5
529.105,829.8
529.241,830.0
529.378,828.6
529.514,829.7
529.651,830.9
529.787,830.3
529.924,831.2
530.061,829.9
530.197,829.8
530.334,830.3
530.47,829.3
530.606,829.8
530.743,830.4
530.879,829.0
531.016,829.8
531.152,830.5
531.289,829.8
531.425,828.9
531.562,830.7
531.698,830.0
531.834,831.2
531.971,833.5
532.107,862.1
532.244,877.5
532.38,842.0
532.516,830.4
532.653,831.0
532.789,828.8
532.925,830.0
533.062,830.4
533.198,828.9
533.334,830.5
533.471,831.0
533.607,839.3
533.743,929.9
533.879,1381.9
534.016,2148.0
534.152,2512.8
534.288,2514.2
534.424,2362.3
534.561,2249.8
534.697,2141.1
534.833,1982.6
534.969,1832.3
535.106,1677.1
535.242,1542.1
535.378,1428.3
535.514,1339.5
535.65,1260.2
535.786,1197.9
535.923,1145.0
536.059,1105.1
536.195,1080.8
536.331,1050.8
536.467,1041.1
536.603,1035.5
536.739,1021.1
536.876,1017.9
537.012,1013.4
537.148,1002.1
537.284,997.1
537.42,991.1
537.556,983.6
537.692,984.2
537.828,984.2
537.964,984.2
538.1,992.3
538.236,1004.3
538.372,1012.3
538.508,1019.8
538.644,1015.8
538.78,996.6
538.916,982.3
539.052,954.5
539.188,926.7
539.324,917.6
539.46,908.3
539.596,900.5
539.732,901.0
539.868,898.7
540.004,899.1
540.14,892.1
540.275,892.2
540.411,890.5
540.547,889.8
540.683,889.6
540.819,885.1
540.955,884.8
541.091,887.0
541.227,883.3
541.362,883.9
541.498,883.8
541.634,884.2
541.77,882.9
541.906,884.1
542.041,880.6
542.177,883.0
542.313,878.9
542.449,880.4
542.585,881.4
542.72,881.8
542.856,881.1
542.992,883.7
543.128,885.1
543.263,887.0
543.399,890.1
543.535,892.1
543.67,892.7
543.806,896.8
543.942,899.5
544.078,897.0
544.213,893.6
544.349,889.5
544.485,886.6
544.62,881.6
544.756,881.5
544.892,877.7
545.027,882.1
545.163,878.1
545.298,875.3
545.434,875.2
545.57,875.6
545.705,872.5
545.841,870.8
545.976,872.1
546.112,871.5
546.248,871.5
546.383,870.2
546.519,870.5
546.654,872.6
546.79,872.9
546.925,871.6
547.061,871.8
547.196,873.2
547.332,870.0
547.467,873.2
547.603,872.6
547.738,875.0
547.874,877.1
548.009,879.5
548.145,879.4
548.28,878.8
548.416,874.1
548.551,874.9
548.686,874.1
548.822,876.7
548.957,874.8
549.093,873.0
549.228,870.5
549.363,870.2
549.499,869.8
549.634,869.7
549.77,871.6
549.905,869.6
550.04,872.0
550.176,895.8
550.311,952.8
550.446,962.9
550.582,904.9
550.717,878.1
550.852,871.1
550.988,870.8
551.123,865.1
551.258,864.0
551.394,864.0
551.529,864.2
551.664,862.0
551.799,860.6
551.935,863.1
552.07,862.0
552.205,861.8
552.34,862.7
552.476,864.6
552.611,862.4
552.746,865.9
552.881,867.0
553.016,865.3
553.152,865.7
553.287,866.4
553.422,863.4
553.557,867.0
553.692,866.4
553.827,877.2
553.963,880.4
554.098,891.8
554.233,896.1
554.368,900.7
554.503,905.9
554.638,910.7
554.773,905.7
554.908,902.2
555.043,896.0
555.179,898.4
555.314,906.4
555.449,920.9
555.584,942.2
555.719,949.8
555.854,943.0
555.989,917.6
556.124,900.5
556.259,893.7
556.394,879.5
556.529,875.4
556.664,870.8
556.799,873.7
556.934,881.0
557.069,889.8
557.204,887.2
557.339,881.8
557.474,879.7
557.609,876.1
557.744,878.8
557.879,876.0
558.014,872.2
558.149,874.7
558.284,874.5
558.419,873.2
558.553,872.6
558.688,874.7
558.823,876.1
558.958,881.4
559.093,887.5
559.228,887.3
559.363,879.8
559.498,873.1
559.632,869.1
559.767,869.2
559.902,867.9
560.037,867.9
560.172,871.9
560.307,870.6
560.441,869.3
560.576,871.4
560.711,874.3
560.846,876.4
560.981,878.8
561.115,880.5
561.25,879.8
561.385,887.5
561.52,897.3
561.654,924.3
561.789,963.2
561.924,1074.9
562.059,1511.1
562.193,1785.3
562.328,1283.7
562.463,976.7
562.598,910.3
562.732,914.2
562.867,962.0
563.002,1070.9
563.136,1119.7
563.271,1041.8
563.406,955.6
563.54,914.4
563.675,903.6
563.81,898.5
563.944,898.0
564.079,900.1
564.213,904.0
564.348,905.9
564.483,907.9
564.617,902.3
564.752,904.1
564.887,902.1
565.021,901.4
565.156,899.8
565.29,900.2
565.425,892.1
565.559,884.7
565.694,879.6
565.828,874.6
565.963,873.0
566.098,870.8
566.232,871.2
566.367,872.1
566.501,874.8
566.636,883.5
566.77,894.1
566.905,933.6
567.039,969.4
567.174,949.1
567.308,922.4
567.443,915.0
567.577,913.6
567.711,938.5
567.846,984.6
567.98,1005.4
568.115,1000.0
568.249,1000.6
568.384,1021.8
568.518,1026.2
568.652,1005.1
568.787,965.7
568.921,938.1
569.056,917.6
569.19,913.7
569.324,904.7
569.459,897.4
569.593,895.3
569.727,889.7
569.862,888.8
569.996,888.2
570.131,891.8
570.265,888.7
570.399,888.5
570.534,885.5
570.668,886.4
570.802,887.6
570.936,886.7
571.071,887.7
571.205,886.6
571.339,889.5
571.474,890.8
571.608,897.5
571.742,898.3
571.876,902.4
572.011,903.1
572.145,907.5
572.279,909.2
572.413,915.4
572.548,919.6
572.682,924.8
572.816,920.9
572.95,915.6
573.084,905.8
573.219,903.9
573.353,898.2
573.487,895.2
573.621,893.1
573.755,894.5
573.889,897.0
574.024,895.9
574.158,898.8
574.292,889.9
574.426,884.7
574.56,881.3
574.694,877.3
574.828,878.3
574.963,879.9
575.097,878.7
575.231,878.6
575.365,878.3
575.499,876.1
575.633,877.3
575.767,874.2
575.901,879.0
576.035,883.2
576.169,892.1
576.303,904.0
576.437,915.8
576.571,928.4
576.706,937.7
576.84,928.3
576.974,902.0
577.108,890.4
577.242,883.5
577.376,881.4
577.51,880.5
577.644,879.5
577.778,879.8
577.912,876.8
578.046,878.6
578.179,881.7
578.313,877.3
578.447,875.7
578.581,879.0
578.715,875.7
578.849,878.2
578.983,879.2
579.117,877.5
579.251,875.9
579.385,879.6
579.519,876.7
579.653,881.5
579.787,879.1
579.921,881.2
580.054,877.5
580.188,880.4
580.322,881.5
580.456,882.0
580.59,884.5
580.724,887.8
580.858,897.8
580.991,922.2
581.125,961.9
581.259,958.4
581.393,931.9
581.527,951.3
581.661,1024.9
581.794,1125.0
581.928,1084.0
582.062,973.9
582.196,914.1
582.33,897.3
582.463,891.7
582.597,885.7
582.731,886.6
582.865,883.1
582.998,878.4
583.132,880.2
583.266,882.0
583.4,880.2
583.533,876.8
583.667,877.1
583.801,879.9
583.935,876.5
584.068,876.5
584.202,876.4
584.336,877.3
584.469,879.0
584.603,879.5
584.737,876.6
584.87,877.8
585.004,879.3
585.138,877.4
585.271,875.9
585.405,875.7
585.539,876.8
585.672,875.6
585.806,873.6
585.94,874.8
586.073,873.9
586.207,874.9
586.34,874.3
586.474,878.6
586.608,876.4
586.741,876.5
586.875,875.8
587.008,876.2
587.142,877.1
587.276,877.9
587.409,875.7
587.543,875.4
587.676,876.8
587.81,873.3
587.943,875.2
588.077,875.9
588.21,875.3
588.344,876.8
588.478,875.2
588.611,873.4
588.745,872.7
588.878,875.7
589.012,876.6
589.145,874.6
589.279,876.0
589.412,875.4
589.546,874.2
589.679,874.9
589.812,874.2
589.946,871.6
590.079,872.0
590.213,874.9
590.346,872.8
590.48,873.1
590.613,871.9
590.747,872.6
590.88,871.4
591.013,875.5
591.147,873.0
591.28,875.7
591.414,874.9
591.547,869.2
591.68,874.0
591.814,875.1
591.947,874.3
592.081,874.5
592.214,872.9
592.347,873.5
592.481,873.5
592.614,872.9
592.747,876.5
592.881,874.4
593.014,875.6
593.147,876.0
593.281,872.5
593.414,874.9
593.547,874.4
593.681,876.8
593.814,874.7
593.947,874.1
594.081,877.8
594.214,874.3
594.347,875.0
594.48,872.3
594.614,875.5
594.747,875.9
594.88,875.2
595.014,872.8
595.147,876.2
595.28,874.2
595.413,875.5
595.547,869.4
595.68,873.6
595.813,873.1
595.946,873.4
596.079,875.2
596.213,874.8
596.346,875.1
596.479,876.4
596.612,874.8
596.745,874.9
596.879,877.0
597.012,875.1
597.145,871.7
597.278,873.2
597.411,872.8
597.545,874.0
597.678,874.8
597.811,874.4
597.944,874.0
598.077,875.7
598.21,874.3
598.343,875.5
598.476,876.0
598.61,875.4
598.743,874.6
598.876,877.6
599.009,877.5
599.142,879.1
599.275,874.7
599.408,876.1
599.541,873.5
599.674,877.3
599.807,879.5
599.941,877.9
600.074,878.8
600.207,873.6
600.34,876.5
600.473,876.2
600.606,874.9
600.739,878.5
600.872,879.9
601.005,879.4
601.138,875.7
601.271,877.4
601.404,879.2
601.537,877.6
601.67,877.3
601.803,874.3
601.936,876.6
602.069,878.7
602.202,875.8
602.335,875.5
602.468,879.8
602.601,880.0
602.734,880.0
602.867,879.3
603.0,880.5
603.133,880.9
603.266,880.4
603.399,878.3
603.532,878.8
603.664,878.4
603.797,880.8
603.93,879.0
604.063,879.5
604.196,879.1
604.329,879.3
604.462,879.5
604.595,878.6
604.728,879.5
604.861,878.7
604.994,878.3
605.126,880.4
605.259,879.4
605.392,878.5
605.525,877.9
605.658,880.7
605.791,879.7
605.924,876.1
606.056,877.5
606.189,878.5
606.322,880.1
606.455,881.3
606.588,881.7
606.721,879.7
606.853,885.1
606.986,881.3
607.119,880.8
607.252,881.5
607.385,882.4
607.517,880.6
607.65,880.6
607.783,881.1
607.916,882.7
608.049,882.3
608.181,883.7
608.314,883.9
608.447,885.2
608.58,884.8
608.712,883.0
608.845,885.1
608.978,883.6
609.111,888.4
609.243,884.5
609.376,883.4
609.509,885.9
609.641,886.1
609.774,883.5
609.907,887.7
610.04,883.0
610.172,887.4
610.305,885.5
610.438,883.7
610.57,887.5
610.703,884.9
610.836,887.0
610.968,885.2
611.101,888.3
611.234,888.5
611.366,888.3
611.499,886.9
611.632,887.8
611.764,888.4
611.897,891.1
612.03,890.4
612.162,890.6
612.295,889.0
612.428,889.5
612.56,891.3
612.693,891.8
612.825,892.2
612.958,891.6
613.091,894.2
613.223,894.5
613.356,893.5
613.488,893.6
613.621,892.7
613.754,896.2
613.886,892.6
614.019,894.3
614.151,896.0
614.284,892.7
614.416,896.9
614.549,897.4
614.681,894.5
614.814,894.2
614.947,893.8
615.079,891.3
615.212,897.0
615.344,895.4
615.477,895.9
615.609,898.3
615.742,894.8
615.874,899.3
616.007,899.8
616.139,897.9
616.272,901.2
616.404,900.8
616.537,901.5
616.669,900.8
616.802,906.8
616.934,905.0
617.067,902.7
617.199,903.9
617.332,903.6
617.464,904.4
617.596,907.7
617.729,904.0
617.861,908.1
617.994,908.7
618.126,907.6
618.259,906.7
618.391,906.3
618.524,907.8
618.656,905.9
618.788,903.4
618.921,903.3
619.053,902.7
619.186,904.5
619.318,905.4
619.45,908.8
619.583,908.2
619.715,906.8
619.848,907.9
619.98,906.6
620.112,901.8
620.245,905.3
620.377,906.4
620.509,908.4
620.642,903.1
620.774,904.8
620.907,906.9
621.039,905.7
621.171,908.5
621.304,908.5
621.436,907.8
621.568,906.6
621.701,907.0
621.833,908.4
621.965,907.5
622.097,907.4
622.23,908.6
622.362,912.2
622.494,905.9
622.627,908.9
622.759,907.4
622.891,913.3
623.024,909.1
623.156,911.3
623.288,909.5
623.42,911.6
623.553,909.1
623.685,908.7
623.817,910.4
623.949,911.1
624.082,910.7
624.214,910.7
624.346,912.8
624.479,914.0
624.611,920.3
624.743,911.1
624.875,913.1
625.007,911.4
625.14,912.3
625.272,915.1
625.404,914.7
625.536,914.7
625.669,916.5
625.801,916.0
625.933,912.9
626.065,916.8
626.197,919.9
626.33,919.6
626.462,920.6
626.594,924.4
626.726,930.3
626.858,940.6
626.99,964.8
627.123,990.8
627.255,1016.8
627.387,1033.6
627.519,1031.9
627.651,1020.7
627.783,1007.5
627.916,993.7
628.048,994.4
628.18,986.0
628.312,991.8
628.444,1000.4
628.576,1012.5
628.708,1033.3
628.84,1051.7
628.973,1078.8
629.105,1104.0
629.237,1121.9
629.369,1137.9
629.501,1143.1
629.633,1138.2
629.765,1136.1
629.897,1128.8
630.029,1111.5
630.161,1100.6
630.294,1084.1
630.426,1071.3
630.558,1054.9
630.69,1047.8
630.822,1033.3
630.954,1017.5
631.086,1003.4
631.218,988.0
631.35,980.3
631.482,967.1
631.614,966.8
631.746,960.9
631.878,963.4
632.01,963.9
632.142,965.5
632.274,985.0
632.406,994.7
632.538,986.5
632.67,963.2
632.802,951.4
632.934,944.2
633.066,955.5
633.198,974.8
633.33,992.8
633.462,993.8
633.594,972.8
633.726,958.4
633.858,957.9
633.99,965.1
634.122,985.0
634.254,1014.2
634.386,1053.2
634.518,1098.9
634.65,1143.5
634.782,1169.3
634.914,1193.1
635.046,1218.2
635.178,1305.8
635.31,1454.1
635.442,1532.3
635.574,1527.6
635.706,1511.0
635.838,1472.3
635.97,1364.5
636.102,1257.0
636.234,1156.5
636.365,1086.9
636.497,1041.5
636.629,1021.9
636.761,1003.1
636.893,989.8
637.025,973.5
637.157,961.2
637.289,957.4
637.421,955.1
637.553,954.7
637.685,951.7
637.816,946.4
637.948,943.1
638.08,939.2
638.212,938.8
638.344,935.2
638.476,932.6
638.608,931.6
638.74,934.7
638.871,930.9
639.003,932.0
639.135,935.2
639.267,932.3
639.399,936.6
639.531,932.7
639.662,937.8
639.794,946.8
639.926,949.7
640.058,949.8
640.19,943.2
640.322,935.2
640.453,934.1
640.585,934.8
640.717,930.8
640.849,932.3
640.981,932.3
641.113,935.6
641.244,939.8
641.376,944.7
641.508,949.1
641.64,945.4
641.772,941.1
641.903,938.8
642.035,931.1
642.167,932.3
642.299,931.0
642.43,927.5
642.562,927.3
642.694,928.7
642.826,926.3
642.958,928.7
643.089,931.3
643.221,924.6
643.353,920.9
643.485,927.3
643.616,926.5
643.748,925.7
643.88,929.6
644.012,924.6
644.143,926.9
644.275,929.4
644.407,927.8
644.538,928.1
644.67,929.4
644.802,926.8
644.934,926.7
645.065,926.9
645.197,928.7
645.329,928.3
645.461,930.5
645.592,927.2
645.724,928.5
645.856,928.7
645.987,924.9
646.119,928.2
646.251,927.3
646.382,932.4
646.514,928.3
646.646,928.3
646.777,928.5
646.909,929.2
647.041,931.7
647.172,930.4
647.304,930.5
647.436,928.8
647.567,932.0
647.699,932.7
647.831,931.0
647.962,934.5
648.094,931.1
648.226,930.7
648.357,932.2
648.489,931.6
648.621,929.1
648.752,932.7
648.884,931.2
649.016,928.4
649.147,928.5
649.279,926.5
649.411,927.7
649.542,932.2
649.674,932.0
649.805,931.9
649.937,930.2
650.069,929.6
650.2,931.1
650.332,933.2
650.463,934.1
650.595,928.4
650.727,932.1
650.858,928.4
650.99,931.2
651.121,930.0
651.253,931.3
651.385,929.8
651.516,931.9
651.648,928.6
651.779,933.6
651.911,933.7
652.043,932.8
652.174,931.0
652.306,928.7
652.437,932.5
652.569,937.7
652.7,932.8
652.832,934.2
652.963,935.6
653.095,934.8
653.227,934.3
653.358,931.3
653.49,933.7
653.621,934.1
653.753,936.1
653.884,938.4
654.016,934.6
654.147,936.0
654.279,933.4
654.41,936.1
654.542,933.5
654.674,935.0
654.805,936.7
654.937,936.8
655.068,933.8
655.2,935.4
655.331,933.5
655.463,941.9
655.594,935.8
655.726,940.0
655.857,936.9
655.989,935.5
656.12,940.4
656.252,934.2
656.383,934.0
656.515,937.8
656.646,937.2
656.778,940.4
656.909,938.4
657.041,940.0
657.172,937.6
657.304,935.4
657.435,940.7
657.567,929.6
657.698,936.1
657.829,936.3
657.961,938.1
658.092,939.0
658.224,942.9
658.355,942.0
658.487,937.9
658.618,942.1
658.75,947.4
658.881,937.9
659.013,941.9
659.144,939.9
659.275,940.5
659.407,939.2
659.538,942.9
659.67,941.8
659.801,940.7
659.933,943.1
660.064,939.8
660.196,938.0
660.327,939.5
660.458,945.0
660.59,943.1
660.721,938.4
660.853,940.3
660.984,939.0
661.116,942.5
661.247,944.1
661.378,940.9
661.51,945.2
661.641,947.1
661.773,938.9
661.904,946.0
662.035,946.7
662.167,941.1
662.298,940.3
662.43,940.1
662.561,937.5
662.692,943.3
662.824,942.6
662.955,939.1
663.087,940.7
