nm,Intensity
528.626,1862.7
528.711,1863.3
528.795,1864.0
528.879,1863.8
528.963,1863.5
529.048,1862.8
529.132,1864.8
529.216,1863.8
529.3,1863.7
529.385,1865.1
529.469,1862.5
529.553,1863.4
529.637,1864.3
529.721,1865.2
529.806,1865.8
529.89,1866.0
529.974,1865.6
530.058,1863.9
530.143,1864.2
530.227,1865.7
530.311,1864.2
530.395,1866.4
530.48,1866.3
530.564,1865.5
530.648,1864.9
530.732,1863.5
530.816,1864.5
530.901,1865.3
530.985,1865.6
531.069,1865.3
531.153,1867.9
531.237,1870.0
531.322,1870.2
531.406,1873.6
531.49,1873.0
531.574,1879.6
531.658,1907.9
531.743,2003.9
531.827,2370.6
531.911,3213.1
531.995,4874.5
532.079,5450.9
532.164,4768.5
532.248,3383.3
532.332,2276.5
532.416,1909.4
532.5,1872.7
532.585,1870.9
532.669,1866.9
532.753,1865.9
532.837,1867.3
532.921,1867.8
533.006,1867.6
533.09,1866.6
533.174,1866.9
533.258,1868.4
533.342,1873.0
533.426,1880.4
533.511,1901.8
533.595,1969.2
533.679,2109.2
533.763,2323.9
533.847,2524.6
533.931,2705.8
534.016,2860.1
534.1,2958.0
534.184,2942.4
534.268,2953.8
534.352,2918.6
534.436,2952.1
534.521,2926.0
534.605,2908.0
534.689,2917.1
534.773,2904.8
534.857,2939.8
534.941,2925.4
535.025,2925.9
535.11,2906.3
535.194,2933.9
535.278,2968.1
535.362,2945.4
535.446,2906.9
535.53,2910.3
535.614,2909.2
535.699,2906.6
535.783,2903.1
535.867,2883.9
535.951,2867.7
536.035,2872.3
536.119,2904.5
536.203,2888.0
536.287,2909.8
536.372,2881.3
536.456,2903.1
536.54,2876.3
536.624,2873.9
536.708,2915.0
536.792,2895.3
536.876,2879.9
536.96,2901.8
537.044,2925.7
537.129,2913.9
537.213,2902.9
537.297,2922.0
537.381,2922.0
537.465,2944.3
537.549,2937.2
537.633,2961.0
537.717,2949.7
537.801,2977.7
537.885,2983.5
537.97,2967.4
538.054,2971.0
538.138,2991.3
538.222,2985.1
538.306,2969.2
538.39,2954.5
538.474,2943.9
538.558,2950.9
538.642,2992.2
538.726,2970.2
538.81,3000.7
538.894,3005.3
538.979,2984.2
539.063,2989.1
539.147,3010.8
539.231,2996.5
539.315,3040.6
539.399,3029.7
539.483,3013.1
539.567,3028.7
539.651,2974.0
539.735,3011.7
539.819,3037.2
539.903,3022.8
539.987,2994.5
540.071,3013.6
540.155,3040.7
540.239,3051.1
540.324,3020.2
540.408,3032.9
540.492,3061.9
540.576,3064.8
540.66,3038.9
540.744,3028.2
540.828,3027.7
540.912,3052.0
540.996,3031.7
541.08,3051.6
541.164,3072.9
541.248,3087.3
541.332,3060.2
541.416,3091.8
541.5,3077.3
541.584,3073.3
541.668,3083.7
541.752,3091.6
541.836,3063.8
541.92,3087.5
542.004,3100.3
542.088,3135.1
542.172,3128.6
542.256,3133.2
542.34,3107.2
542.424,3125.7
542.508,3140.7
542.592,3146.5
542.676,3152.5
542.76,3127.9
542.844,3126.8
542.928,3129.6
543.012,3147.6
543.096,3177.6
543.18,3179.8
543.264,3169.4
543.348,3170.9
543.432,3190.8
543.516,3188.6
543.6,3178.7
543.684,3155.5
543.768,3173.9
543.852,3159.7
543.936,3200.6
544.02,3186.9
544.104,3209.4
544.188,3189.7
544.272,3206.2
544.356,3195.8
544.44,3186.5
544.524,3193.6
544.608,3205.9
544.692,3203.2
544.776,3174.1
544.86,3203.9
544.944,3178.3
545.028,3247.9
545.112,3244.3
545.196,3265.6
545.28,3239.0
545.364,3247.1
545.448,3228.4
545.532,3214.8
545.616,3255.2
545.7,3254.8
545.784,3249.3
545.867,3271.6
545.951,3260.2
546.035,3279.6
546.119,3283.1
546.203,3275.8
546.287,3305.2
546.371,3289.2
546.455,3271.0
546.539,3242.1
546.623,3252.8
546.707,3306.2
546.791,3308.2
546.875,3306.8
546.959,3294.8
547.043,3316.3
547.127,3336.3
547.21,3331.4
547.294,3360.7
547.378,3348.3
547.462,3324.8
547.546,3292.8
547.63,3275.8
547.714,3316.1
547.798,3354.6
547.882,3381.6
547.966,3344.1
548.05,3335.3
548.134,3344.0
548.217,3379.6
548.301,3387.1
548.385,3370.2
548.469,3361.1
548.553,3395.2
548.637,3405.3
548.721,3390.6
548.805,3423.0
548.889,3429.3
548.972,3427.7
549.056,3430.0
549.14,3419.5
549.224,3441.2
549.308,3407.1
549.392,3397.1
549.476,3404.2
549.56,3437.2
549.644,3425.8
549.727,3378.2
549.811,3424.9
549.895,3430.3
549.979,3476.9
550.063,3446.3
550.147,3448.3
550.231,3454.9
550.315,3476.9
550.398,3473.3
550.482,3469.2
550.566,3470.2
550.65,3502.4
550.734,3482.2
550.818,3454.0
550.902,3471.0
550.985,3485.6
551.069,3553.8
551.153,3579.8
551.237,3547.1
551.321,3518.1
551.405,3511.3
551.488,3535.9
551.572,3529.0
551.656,3529.6
551.74,3513.1
551.824,3508.4
551.908,3570.0
551.991,3593.5
552.075,3577.8
552.159,3551.3
552.243,3566.1
552.327,3609.5
552.411,3581.5
552.494,3576.6
552.578,3590.5
552.662,3567.4
552.746,3509.3
552.83,3538.6
552.914,3556.8
552.997,3584.0
553.081,3605.6
553.165,3598.5
553.249,3579.9
553.333,3549.0
553.416,3579.1
553.5,3619.6
553.584,3619.2
553.668,3634.9
553.752,3654.8
553.835,3621.5
553.919,3639.0
554.003,3617.6
554.087,3623.4
554.171,3658.4
554.254,3624.4
554.338,3611.2
554.422,3685.7
554.506,3691.7
554.589,3669.1
554.673,3657.3
554.757,3674.7
554.841,3672.3
554.925,3677.4
555.008,3721.2
555.092,3708.6
555.176,3701.2
555.26,3668.3
555.343,3692.5
555.427,3702.4
555.511,3723.6
555.595,3730.7
555.679,3677.4
555.762,3711.2
555.846,3712.4
555.93,3707.9
556.014,3731.2
556.097,3733.2
556.181,3706.8
556.265,3720.8
556.349,3737.3
556.432,3721.4
556.516,3675.0
556.6,3699.8
556.684,3708.6
556.767,3757.4
556.851,3716.0
556.935,3763.1
557.018,3763.2
557.102,3770.5
557.186,3719.0
557.27,3763.6
557.353,3745.1
557.437,3715.6
557.521,3773.7
557.605,3812.5
557.688,3799.3
557.772,3805.4
557.856,3824.8
557.939,3771.0
558.023,3791.0
558.107,3797.8
558.191,3801.6
558.274,3820.6
558.358,3796.3
558.442,3825.2
558.525,3769.3
558.609,3789.8
558.693,3805.7
558.776,3823.4
558.86,3873.5
558.944,3868.2
559.028,3851.0
559.111,3832.3
559.195,3855.5
559.279,3859.0
559.362,3834.1
559.446,3856.3
559.53,3863.4
559.613,3885.3
559.697,3867.5
559.781,3844.8
559.864,3837.5
559.948,3823.9
560.032,3844.4
560.115,3902.9
560.199,3865.8
560.283,3883.8
560.366,3894.4
560.45,3899.6
560.534,3888.2
560.617,3896.9
560.701,3937.0
560.785,3929.8
560.868,3938.0
560.952,3957.4
561.036,3930.2
561.119,3954.7
561.203,3976.8
561.287,3933.2
561.37,3983.0
561.454,3994.8
561.538,4000.9
561.621,3967.5
561.705,4012.3
561.789,4007.9
561.872,4088.2
561.956,4132.1
562.039,4144.5
562.123,4129.1
562.207,4141.1
562.29,4101.1
562.374,4052.6
562.458,4027.5
562.541,3999.0
562.625,4054.8
562.708,4037.6
562.792,4047.3
562.876,4023.2
562.959,4071.4
563.043,4051.8
563.127,4062.4
563.21,4052.6
563.294,4049.0
563.377,4024.7
563.461,4036.5
563.545,4053.3
563.628,4106.6
563.712,4107.8
563.795,4057.9
563.879,4060.0
563.963,4034.3
564.046,4065.3
564.13,4029.3
564.213,4043.6
564.297,4047.9
564.38,4112.3
564.464,4094.9
564.548,4091.2
564.631,4125.8
564.715,4093.7
564.798,4080.7
564.882,4101.0
564.966,4154.9
565.049,4137.1
565.133,4161.5
565.216,4162.3
565.3,4131.0
565.383,4128.2
565.467,4137.6
565.551,4116.8
565.634,4127.4
565.718,4160.9
565.801,4182.2
565.885,4232.8
565.968,4211.1
566.052,4171.5
566.135,4156.4
566.219,4151.9
566.302,4183.7
566.386,4180.5
566.47,4132.5
566.553,4186.1
566.637,4202.4
566.72,4188.4
566.804,4243.5
566.887,4266.0
566.971,4258.5
567.054,4171.4
567.138,4188.2
567.221,4232.9
567.305,4245.8
567.388,4242.0
567.472,4249.8
567.555,4222.0
567.639,4209.6
567.722,4248.4
567.806,4316.2
567.889,4306.0
567.973,4316.8
568.057,4282.6
568.14,4280.2
568.224,4311.3
568.307,4345.5
568.391,4335.8
568.474,4327.1
568.558,4327.3
568.641,4361.1
568.725,4335.3
568.808,4338.5
568.892,4317.9
568.975,4319.5
569.058,4346.3
569.142,4362.0
569.225,4348.5
569.309,4395.1
569.392,4355.0
569.476,4408.0
569.559,4341.6
569.643,4363.4
569.726,4370.6
569.81,4382.0
569.893,4341.1
569.977,4372.5
570.06,4398.6
570.144,4427.6
570.227,4393.0
570.311,4342.4
570.394,4361.5
570.477,4405.2
570.561,4432.7
570.644,4471.4
570.728,4388.6
570.811,4393.1
570.895,4421.5
570.978,4368.8
571.062,4466.1
571.145,4447.9
571.229,4456.5
571.312,4463.0
571.395,4451.0
571.479,4414.8
571.562,4443.8
571.646,4478.0
571.729,4482.2
571.813,4491.8
571.896,4492.2
571.979,4486.6
572.063,4522.2
572.146,4532.7
572.23,4534.5
572.313,4527.3
572.397,4582.5
572.48,4560.2
572.563,4571.4
572.647,4610.6
572.73,4558.3
572.814,4526.4
572.897,4564.4
572.98,4553.0
573.064,4570.1
573.147,4540.0
573.231,4528.4
573.314,4560.9
573.397,4563.6
573.481,4546.9
573.564,4529.2
573.648,4592.0
573.731,4608.2
573.814,4643.5
573.898,4647.5
573.981,4538.2
574.064,4490.9
574.148,4520.8
574.231,4545.8
574.315,4541.7
574.398,4541.7
574.481,4574.4
574.565,4611.8
574.648,4599.6
574.731,4595.3
574.815,4616.5
574.898,4669.9
574.982,4635.1
575.065,4643.7
575.148,4607.3
575.232,4619.3
575.315,4625.2
575.398,4607.0
575.482,4610.2
575.565,4615.2
575.648,4607.7
575.732,4634.0
575.815,4653.4
575.898,4651.4
575.982,4686.8
576.065,4731.1
576.148,4740.5
576.232,4711.2
576.315,4680.4
576.398,4708.4
576.482,4696.1
576.565,4661.4
576.648,4720.9
576.732,4754.1
576.815,4739.0
576.898,4659.2
576.982,4659.2
577.065,4746.1
577.148,4773.7
577.232,4773.0
577.315,4736.8
577.398,4658.8
577.481,4677.6
577.565,4736.4
577.648,4710.6
577.731,4680.2
577.815,4676.8
577.898,4721.8
577.981,4754.9
578.065,4768.5
578.148,4723.1
578.231,4706.3
578.314,4744.3
578.398,4701.6
578.481,4736.4
578.564,4731.5
578.648,4752.3
578.731,4728.1
578.814,4763.0
578.897,4752.7
578.981,4743.1
579.064,4805.9
579.147,4761.4
579.23,4796.5
579.314,4785.2
579.397,4743.9
579.48,4783.1
579.563,4811.9
579.647,4839.1
579.73,4831.2
579.813,4804.5
579.896,4805.8
579.98,4823.2
580.063,4842.5
580.146,4863.0
580.229,4856.9
580.313,4833.9
580.396,4806.0
580.479,4848.9
580.562,4883.5
580.646,4868.4
580.729,4907.2
580.812,4926.2
580.895,4936.9
580.979,4920.6
581.062,4924.7
581.145,4878.4
581.228,4849.0
581.311,4858.3
581.395,4886.2
581.478,4864.7
581.561,4930.0
581.644,4898.6
581.728,4918.4
581.811,4912.5
581.894,4918.3
581.977,4934.4
582.06,4903.5
582.144,4896.0
582.227,4909.8
582.31,4855.0
582.393,4842.9
582.476,4927.4
582.56,4869.5
582.643,4919.9
582.726,4901.9
582.809,4877.7
582.892,4847.6
582.975,4846.1
583.059,4873.5
583.142,4848.1
583.225,4821.5
583.308,4877.9
583.391,4837.8
583.475,4884.8
583.558,4870.9
583.641,4868.0
583.724,4861.4
583.807,4939.3
583.89,4935.3
583.973,4880.6
584.057,4883.3
584.14,4890.1
584.223,4912.2
584.306,4949.4
584.389,4968.2
584.472,4904.9
584.556,4920.8
584.639,4909.9
584.722,4860.6
584.805,4904.8
584.888,4935.0
584.971,4892.0
585.054,4966.6
585.138,4958.2
585.221,4875.3
585.304,4896.1
585.387,4893.2
585.47,4874.7
585.553,4875.8
585.636,4887.2
585.719,4901.6
585.802,4858.6
585.886,4858.6
585.969,4905.9
586.052,4979.5
586.135,4952.3
586.218,4960.8
586.301,4910.2
586.384,4837.3
586.467,4914.6
586.55,4976.2
586.634,4941.5
586.717,4961.9
586.8,4960.1
586.883,5008.6
586.966,4974.4
587.049,4988.7
587.132,4969.3
587.215,4937.2
587.298,4955.1
587.381,4954.5
587.464,4935.0
587.548,4946.8
587.631,5026.3
587.714,4988.7
587.797,4984.7
587.88,5000.2
587.963,4978.8
588.046,5047.4
588.129,5090.9
588.212,4995.5
588.295,4999.2
588.378,4958.1
588.461,4948.5
588.544,4965.6
588.627,5029.2
588.71,5043.7
588.793,4984.4
588.876,4988.0
588.96,4992.0
589.043,5010.4
589.126,4983.9
589.209,5010.8
589.292,5026.5
589.375,5008.0
589.458,5047.0
589.541,5006.3
589.624,4922.4
589.707,4988.6
589.79,5047.9
589.873,5079.6
589.956,5005.6
590.039,5009.7
590.122,5014.1
590.205,4930.1
590.288,5020.7
590.371,4982.2
590.454,5030.8
590.537,5104.9
590.62,5115.3
590.703,5107.1
590.786,5016.9
590.869,4993.4
590.952,5052.2
591.035,5106.8
591.118,5055.6
591.201,5040.4
591.284,5042.9
591.367,5046.5
591.45,5048.5
591.533,5096.7
591.616,5110.3
591.699,5098.5
591.782,5084.2
591.865,5117.6
591.948,5124.3
592.031,5109.6
592.114,5082.1
592.197,5078.4
592.28,5078.6
592.363,5119.8
592.446,5124.7
592.529,5141.5
592.611,5116.2
592.694,5152.2
592.777,5200.3
592.86,5134.8
592.943,5053.9
593.026,5100.7
593.109,5161.6
593.192,5115.0
593.275,5084.1
593.358,5076.2
593.441,5119.0
593.524,5059.1
593.607,5102.6
593.69,5094.8
593.773,5089.3
593.856,5154.0
593.939,5126.0
594.021,5064.8
594.104,5058.9
594.187,5105.4
594.27,5149.3
594.353,5147.8
594.436,5070.0
594.519,5177.8
594.602,5211.6
594.685,5149.9
594.768,5107.6
594.851,5060.3
594.933,5107.5
595.016,5154.3
595.099,5149.6
595.182,5194.9
595.265,5303.5
595.348,5242.5
595.431,5189.2
595.514,5251.6
595.597,5213.4
595.68,5198.2
595.762,5199.6
595.845,5193.8
595.928,5142.0
596.011,5170.2
596.094,5232.9
596.177,5234.8
596.26,5244.5
596.342,5271.9
596.425,5275.9
596.508,5212.3
596.591,5199.1
596.674,5209.1
596.757,5207.7
596.84,5250.6
596.923,5279.6
597.005,5260.1
597.088,5260.2
597.171,5296.4
597.254,5242.8
597.337,5198.2
597.42,5259.8
597.502,5243.4
597.585,5192.2
597.668,5219.1
597.751,5239.1
597.834,5245.6
597.917,5216.8
597.999,5258.6
598.082,5246.6
598.165,5274.8
598.248,5313.1
598.331,5229.2
598.414,5261.2
598.496,5237.2
598.579,5289.9
598.662,5368.4
598.745,5371.2
598.828,5325.7
598.91,5218.9
598.993,5228.6
599.076,5321.9
599.159,5308.1
599.242,5269.6
599.324,5330.8
599.407,5312.1
599.49,5333.2
599.573,5307.0
599.656,5315.6
599.738,5339.2
599.821,5369.5
599.904,5332.5
599.987,5303.2
600.069,5280.5
600.152,5289.5
600.235,5307.4
600.318,5333.0
600.401,5395.4
600.483,5376.1
600.566,5371.5
600.649,5337.6
600.732,5329.9
600.814,5376.0
600.897,5352.9
600.98,5420.3
601.063,5379.1
601.145,5320.8
601.228,5273.8
601.311,5304.8
601.394,5308.8
601.476,5325.2
601.559,5378.1
601.642,5332.7
601.725,5427.3
601.807,5380.7
601.89,5413.8
601.973,5366.9
602.055,5323.2
602.138,5389.5
602.221,5437.4
602.304,5465.9
602.386,5354.4
602.469,5365.2
602.552,5368.1
602.635,5328.3
602.717,5328.3
602.8,5309.3
602.883,5369.3
602.965,5383.1
603.048,5395.7
603.131,5376.4
603.213,5361.7
603.296,5366.5
603.379,5404.4
603.462,5418.3
603.544,5446.8
603.627,5442.4
603.71,5332.7
603.792,5429.7
603.875,5456.8
603.958,5467.3
604.04,5468.0
604.123,5434.4
604.206,5422.1
604.288,5414.4
604.371,5431.8
604.454,5342.9
604.536,5365.1
604.619,5386.8
604.702,5351.8
604.784,5333.6
604.867,5438.4
604.95,5412.0
605.032,5507.8
605.115,5447.6
605.198,5387.8
605.28,5423.9
605.363,5417.4
605.446,5491.2
605.528,5430.6
605.611,5463.9
605.693,5404.8
605.776,5467.9
605.859,5414.7
605.941,5421.0
606.024,5446.3
606.107,5497.4
606.189,5435.5
606.272,5406.1
606.354,5491.6
606.437,5488.2
606.52,5446.9
606.602,5452.1
606.685,5478.9
606.767,5532.2
606.85,5450.5
606.933,5486.6
607.015,5494.6
607.098,5446.7
607.181,5451.8
607.263,5440.9
607.346,5467.1
607.428,5533.6
607.511,5494.0
607.593,5483.0
607.676,5503.8
607.759,5492.7
607.841,5518.9
607.924,5510.3
608.006,5468.3
608.089,5471.9
608.172,5491.3
608.254,5444.2
608.337,5448.6
608.419,5457.0
608.502,5452.1
608.584,5498.4
608.667,5522.3
608.749,5448.2
608.832,5489.9
608.915,5533.9
608.997,5524.8
609.08,5526.2
609.162,5485.7
609.245,5461.2
609.327,5505.9
609.41,5565.5
609.492,5518.7
609.575,5480.2
609.657,5511.4
609.74,5514.6
609.823,5566.2
609.905,5634.5
609.988,5609.4
610.07,5526.8
610.153,5501.5
610.235,5581.8
610.318,5514.3
610.4,5477.9
610.483,5560.9
610.565,5546.1
610.648,5592.5
610.73,5587.9
610.813,5522.6
610.895,5578.2
610.978,5565.2
611.06,5585.7
611.143,5559.0
611.225,5546.1
611.308,5572.7
611.39,5678.5
611.473,5654.3
611.555,5544.4
611.638,5565.9
611.72,5567.5
611.803,5546.6
611.885,5567.4
611.968,5549.6
612.05,5532.1
612.133,5530.6
612.215,5541.4
612.297,5540.2
612.38,5579.2
612.462,5558.8
612.545,5549.3
612.627,5554.8
612.71,5620.6
612.792,5548.4
612.875,5601.0
612.957,5627.1
613.04,5590.4
613.122,5508.3
613.204,5545.8
613.287,5595.0
613.369,5581.4
613.452,5601.7
613.534,5685.0
613.617,5593.1
613.699,5553.6
613.781,5607.8
613.864,5671.2
613.946,5609.1
614.029,5596.9
614.111,5634.7
614.194,5557.7
614.276,5582.1
614.358,5571.2
614.441,5706.4
614.523,5714.8
614.606,5676.3
614.688,5577.7
614.77,5527.0
614.853,5482.9
614.935,5574.6
615.018,5611.9
615.1,5607.3
615.182,5632.2
615.265,5665.0
615.347,5615.3
615.43,5581.1
615.512,5623.4
615.594,5614.7
615.677,5641.5
615.759,5746.8
615.841,5691.1
615.924,5563.4
616.006,5583.6
616.089,5615.5
616.171,5608.8
616.253,5623.8
616.336,5651.2
616.418,5623.1
616.5,5609.8
616.583,5591.9
616.665,5652.5
616.747,5641.8
616.83,5647.3
616.912,5613.7
616.994,5596.9
617.077,5603.0
617.159,5632.6
617.242,5699.2
617.324,5652.4
617.406,5684.3
617.489,5658.4
617.571,5643.8
617.653,5648.5
617.735,5587.1
617.818,5655.2
617.9,5632.2
617.982,5648.2
618.065,5718.5
618.147,5676.9
618.229,5659.7
618.312,5657.8
618.394,5602.6
618.476,5589.0
618.559,5592.4
618.641,5633.8
618.723,5648.6
618.805,5608.1
618.888,5650.9
618.97,5709.0
619.052,5697.9
619.135,5679.9
619.217,5771.1
619.299,5803.0
619.381,5748.0
619.464,5663.2
619.546,5545.7
619.628,5591.2
619.711,5692.8
619.793,5703.8
619.875,5730.6
619.957,5707.9
620.04,5737.8
620.122,5660.8
620.204,5716.7
620.286,5808.9
620.369,5795.4
620.451,5660.4
620.533,5701.9
620.615,5701.6
620.698,5670.6
620.78,5672.5
620.862,5654.8
620.944,5713.0
621.027,5773.4
621.109,5799.0
621.191,5715.7
621.273,5581.2
621.356,5624.6
621.438,5659.9
621.52,5697.0
621.602,5692.5
621.684,5646.0
621.767,5691.7
621.849,5720.2
621.931,5741.0
622.013,5716.5
622.095,5683.9
622.178,5803.7
622.26,5785.5
622.342,5674.9
622.424,5629.3
622.506,5635.2
622.589,5679.5
622.671,5713.0
622.753,5755.9
622.835,5741.5
622.917,5637.7
623.0,5678.2
623.082,5683.1
623.164,5727.7
623.246,5753.2
623.328,5792.5
623.41,5787.2
623.493,5674.5
623.575,5688.9
623.657,5655.3
623.739,5638.7
623.821,5691.0
623.903,5732.3
623.986,5751.0
624.068,5777.8
624.15,5828.1
624.232,5781.3
624.314,5802.4
624.396,5778.2
624.478,5757.9
624.561,5670.8
624.643,5671.7
624.725,5754.0
624.807,5828.9
624.889,5765.9
624.971,5778.2
625.053,5737.4
625.136,5674.5
625.218,5658.0
625.3,5719.9
625.382,5777.0
625.464,5774.9
625.546,5765.0
625.628,5695.8
625.71,5668.9
625.792,5610.9
625.875,5692.4
625.957,5727.0
626.039,5710.5
626.121,5751.3
626.203,5729.4
626.285,5703.3
626.367,5787.2
626.449,5724.0
626.531,5635.0
626.613,5657.2
626.695,5704.8
626.778,5805.7
626.86,5795.3
626.942,5683.1
627.024,5673.7
627.106,5696.1
627.188,5688.7
627.27,5749.2
627.352,5709.4
627.434,5727.7
627.516,5717.4
627.598,5762.0
627.68,5703.4
627.762,5770.1
627.844,5805.8
627.926,5770.3
628.008,5698.0
628.09,5795.6
628.172,5779.9
628.255,5710.2
628.337,5733.6
628.419,5748.3
628.501,5779.0
628.583,5752.8
628.665,5704.3
628.747,5739.5
628.829,5809.9
628.911,5712.3
628.993,5811.1
629.075,5803.9
629.157,5807.0
629.239,5800.7
629.321,5771.9
629.403,5794.6
629.485,5765.8
629.567,5785.1
629.649,5861.8
629.731,5840.1
629.813,5801.6
629.895,5759.5
629.977,5797.3
630.059,5739.3
630.141,5673.6
630.223,5644.5
630.305,5682.5
630.387,5730.7
630.469,5757.7
630.551,5737.3
630.633,5812.5
630.715,5735.0
630.797,5658.0
630.878,5650.4
630.96,5749.4
631.042,5772.4
631.124,5723.7
631.206,5795.7
631.288,5780.5
631.37,5779.0
631.452,5731.2
631.534,5717.9
631.616,5691.8
631.698,5643.9
631.78,5608.8
631.862,5642.7
631.944,5724.9
632.026,5737.6
632.108,5734.4
632.19,5659.0
632.272,5702.7
632.353,5776.2
632.435,5786.4
632.517,5747.3
632.599,5733.7
632.681,5694.3
632.763,5706.8
632.845,5728.6
632.927,5716.9
633.009,5708.6
633.091,5793.5
633.173,5711.8
633.254,5702.0
633.336,5744.2
633.418,5710.0
633.5,5763.7
633.582,5770.0
633.664,5758.9
633.746,5766.6
633.828,5787.7
633.91,5740.0
633.991,5723.8
634.073,5750.6
634.155,5684.2
634.237,5692.4
634.319,5747.4
634.401,5712.3
634.483,5690.0
634.564,5680.6
634.646,5714.1
634.728,5775.1
634.81,5770.0
634.892,5756.9
634.974,5723.3
635.056,5784.5
635.137,5826.1
635.219,5900.8
635.301,5815.6
635.383,5747.7
635.465,5719.2
635.547,5731.3
635.628,5788.9
635.71,5767.1
635.792,5759.1
635.874,5680.1
635.956,5769.2
636.038,5754.0
636.119,5625.9
636.201,5618.3
636.283,5753.4
636.365,5681.1
636.447,5549.7
636.528,5609.3
636.61,5713.6
636.692,5731.1
636.774,5634.8
636.856,5663.2
636.937,5644.6
637.019,5619.3
637.101,5609.1
637.183,5623.6
637.265,5674.1
637.346,5628.9
637.428,5653.3
637.51,5658.2
637.592,5699.4
637.673,5613.1
637.755,5583.7
637.837,5584.4
637.919,5653.6
638.0,5651.4
638.082,5603.2
638.164,5678.7
638.246,5690.3
638.327,5583.7
638.409,5534.5
638.491,5600.1
638.573,5643.4
638.654,5650.8
638.736,5629.9
638.818,5582.7
638.9,5576.2
638.981,5546.7
639.063,5599.5
639.145,5639.2
639.227,5605.8
639.308,5572.2
639.39,5639.1
639.472,5605.4
639.553,5651.9
639.635,5607.9
639.717,5558.4
639.799,5549.4
639.88,5551.2
639.962,5601.5
640.044,5615.6
640.125,5541.4
