cm-1,Intensity
-123.878,1853.9
-120.866,1853.25
-117.855,1854.5
-114.845,1854.2
-111.836,1852.85
-108.828,1853.0
-105.821,1853.6
-102.815,1853.65
-99.8104,1852.85
-96.8065,1853.55
-93.8036,1853.9
-90.8016,1853.3
-87.8007,1853.15
-84.8008,1852.55
-81.8019,1853.25
-78.8039,1854.15
-75.807,1853.9
-72.8111,1853.4
-69.8161,1854.15
-66.8222,1852.3
-63.8293,1854.05
-60.8373,1853.5
-57.8464,1853.05
-54.8564,1852.8
-51.8675,1853.65
-48.8795,1854.3
-45.8926,1853.8
-42.9066,1854.85
-39.9216,1854.7
-36.9377,1855.5
-33.9547,1855.95
-30.9727,1857.05
-27.9917,1858.1
-25.0117,1858.25
-22.0326,1861.65
-19.0546,1865.8
-16.0776,1887.45
-13.1015,1981.1
-10.1265,2295.3
-7.1524,2887.85
-4.17932,3361.15
-1.20723,3676.15
1.76388,3083.65
4.734,2483.0
7.70313,1978.3
10.6713,1867.0
13.6384,1856.4
16.6046,1854.75
19.5698,1855.45
22.534,1853.65
25.4972,1855.0
28.4595,1853.15
31.4207,1853.95
34.381,1855.05
37.3403,1853.0
40.2986,1853.9
43.256,1853.95
46.2123,1855.1
49.1677,1859.5
52.1221,1870.5
55.0755,1892.9
58.0279,1917.55
60.9794,1940.2
63.9299,1955.3
66.8794,1968.05
69.8279,1973.35
72.7754,1963.1
75.722,1965.65
78.6676,1974.4
81.6122,1973.7
84.5559,1979.3
87.4985,1988.75
90.4402,1991.45
93.381,2004.65
96.3207,2013.8
99.2595,2018.7
102.197,2026.55
105.134,2029.05
108.07,2021.45
111.005,2002.95
113.939,1991.05
116.872,1972.55
119.804,1955.5
122.735,1949.75
125.665,1944.2
128.594,1936.2
131.522,1934.9
134.449,1936.75
137.375,1932.85
140.301,1935.45
143.225,1934.95
146.148,1925.35
149.07,1927.7
151.992,1934.3
154.912,1934.55
157.832,1938.7
160.75,1947.1
163.668,1957.4
166.584,1959.65
169.5,1966.05
172.414,1970.35
175.328,1971.45
178.241,1961.95
181.153,1954.65
184.063,1948.15
186.973,1941.85
189.882,1938.45
192.79,1936.25
195.697,1936.9
198.603,1930.95
201.508,1927.7
204.412,1929.65
207.315,1930.7
210.217,1927.4
213.119,1931.5
216.019,1927.0
218.918,1930.2
221.816,1930.3
224.714,1930.95
227.61,1934.5
230.506,1938.2
233.4,1936.85
236.294,1938.9
239.187,1937.8
242.078,1941.6
244.969,1949.3
247.859,1949.3
250.748,1948.6
253.636,1946.15
256.523,1941.95
259.409,1939.5
262.294,1931.6
265.178,1933.4
268.061,1929.65
270.943,1928.25
273.824,1923.6
276.705,1924.45
279.584,1922.5
282.463,1923.35
285.34,1923.75
288.217,1920.85
291.092,1920.05
293.967,1922.4
296.841,1921.4
299.713,1923.3
302.585,1925.2
305.456,1930.8
308.326,1928.9
311.195,1934.2
314.063,1939.2
316.93,1942.6
319.797,1944.05
322.662,1937.65
325.526,1937.4
328.389,1932.7
331.252,1935.9
334.113,1923.55
336.974,1924.2
339.834,1927.95
342.692,1924.75
345.55,1927.0
348.407,1923.2
351.263,1917.4
354.118,1920.15
356.972,1920.35
359.825,1926.95
362.677,1926.8
365.529,1923.15
368.379,1923.5
371.228,1926.25
374.077,1931.65
376.924,1932.55
379.771,1936.0
382.616,1943.5
385.461,1949.5
388.305,1971.3
391.148,1998.45
393.99,2030.75
396.831,2049.65
399.671,2048.1
402.51,2016.7
405.348,1992.5
408.186,1970.65
411.022,1958.2
413.858,1944.6
416.692,1941.55
419.526,1939.0
422.359,1936.15
425.19,1928.4
428.021,1930.65
430.851,1928.7
433.68,1933.4
436.508,1932.2
439.335,1934.15
442.162,1944.35
444.987,1943.75
447.811,1949.85
450.635,1955.6
453.458,1959.45
456.279,1959.95
459.1,1957.7
461.92,1954.55
464.739,1945.65
467.557,1936.95
470.374,1934.8
473.19,1928.0
476.005,1927.5
478.82,1924.3
481.633,1925.8
484.445,1923.6
487.257,1920.8
490.068,1924.1
492.878,1928.7
495.686,1924.25
498.494,1925.8
501.301,1926.2
504.107,1928.95
506.913,1929.0
509.717,1930.45
512.52,1933.1
515.323,1940.9
518.124,1942.4
520.925,1946.4
523.725,1952.2
526.524,1953.7
529.322,1960.05
532.119,1947.9
534.915,1943.65
537.71,1939.3
540.504,1935.45
543.298,1934.6
546.09,1931.9
548.882,1927.75
551.673,1928.9
554.462,1927.55
557.251,1931.4
560.039,1923.8
562.826,1927.95
565.613,1928.05
568.398,1924.0
571.182,1927.0
573.966,1921.6
576.748,1920.15
579.53,1925.15
582.311,1925.7
585.091,1919.65
587.87,1922.6
590.648,1921.15
593.425,1919.85
596.201,1926.8
598.977,1919.0
601.751,1920.8
604.525,1922.95
607.298,1919.05
610.069,1922.85
612.84,1918.75
615.61,1919.65
618.38,1921.3
621.148,1923.85
623.915,1920.7
626.682,1921.35
629.447,1921.35
632.212,1921.95
634.976,1924.75
637.739,1922.6
640.501,1925.35
643.262,1925.1
646.022,1924.95
648.781,1921.6
651.54,1927.1
654.297,1924.35
657.054,1927.4
659.81,1927.15
662.565,1919.3
665.319,1927.85
668.072,1924.65
670.824,1925.15
673.575,1923.1
676.326,1926.35
679.075,1924.75
681.824,1921.25
684.572,1926.25
687.319,1920.95
690.065,1923.8
692.81,1918.8
695.554,1925.85
698.298,1920.8
701.04,1924.35
703.782,1920.85
706.522,1921.45
709.262,1921.3
712.001,1924.65
714.739,1923.45
717.477,1920.1
720.213,1923.65
722.948,1927.8
725.683,1927.0
728.417,1922.15
731.15,1925.95
733.882,1927.5
736.613,1928.55
739.343,1925.5
742.072,1922.2
744.801,1922.95
747.528,1926.15
750.255,1924.4
752.981,1929.6
755.706,1930.15
758.43,1930.5
761.153,1934.05
763.875,1933.35
766.597,1933.75
769.317,1933.7
772.037,1936.6
774.756,1933.8
777.474,1941.6
780.191,1941.0
782.907,1944.6
785.623,1946.05
788.337,1948.8
791.051,1952.45
793.764,1965.15
796.475,1989.55
799.186,2026.5
801.897,2067.5
804.606,2143.5
807.314,2170.7
810.022,2179.8
812.729,2138.5
815.434,2068.05
818.139,2025.9
820.844,2002.75
823.547,2002.1
826.249,2004.55
828.951,2018.35
831.651,2043.05
834.351,2065.25
837.05,2100.25
839.748,2123.95
842.445,2123.55
845.142,2088.0
847.837,2042.6
850.532,2012.05
853.225,1987.3
855.918,1972.7
858.61,1965.45
861.302,1954.7
863.992,1953.95
866.681,1950.95
869.37,1944.4
872.058,1949.45
874.745,1949.3
877.431,1947.3
880.116,1951.3
882.8,1944.25
885.484,1947.75
888.166,1946.9
890.848,1948.65
893.529,1958.65
896.209,1960.8
898.888,1963.0
901.566,1965.95
904.244,1960.6
906.921,1951.05
909.596,1942.55
912.271,1944.7
914.945,1942.1
917.619,1944.15
920.291,1941.55
922.963,1942.8
925.633,1946.1
928.303,1946.25
930.972,1948.35
933.64,1961.5
936.308,1968.1
938.974,1981.1
941.64,1978.9
944.304,1975.75
946.968,1971.65
949.631,1963.9
952.294,1962.25
954.955,1957.0
957.615,1962.45
960.275,1972.1
962.934,1985.95
965.592,2008.3
968.249,2036.2
970.905,2073.55
973.561,2073.65
976.215,2061.55
978.869,2024.0
981.522,1985.6
984.174,1968.8
986.826,1974.0
989.476,1973.35
992.126,1993.5
994.774,2008.65
997.422,2020.05
1000.07,2009.35
1002.72,2000.75
1005.36,1988.35
1008.01,1976.85
1010.65,1968.3
1013.29,1967.95
1015.93,1961.25
1018.58,1964.35
1021.22,1962.25
1023.86,1969.15
1026.49,1972.85
1029.13,1989.65
1031.77,1998.85
1034.4,2009.55
1037.04,2007.3
1039.67,2009.8
1042.31,2009.6
1044.94,1996.5
1047.57,1980.35
1050.2,1974.25
1052.83,1969.7
1055.46,1960.4
1058.09,1955.6
1060.72,1955.0
1063.35,1954.45
1065.97,1948.65
1068.6,1951.65
1071.22,1951.5
1073.85,1950.9
1076.47,1951.15
1079.09,1951.85
1081.71,1952.55
1084.33,1954.5
1086.95,1957.75
1089.57,1961.7
1092.19,1956.5
1094.81,1960.6
1097.42,1962.6
1100.04,1964.85
1102.65,1974.5
1105.27,1975.95
1107.88,1966.45
1110.49,1964.75
1113.1,1957.55
1115.71,1958.6
1118.32,1955.4
1120.93,1955.25
1123.54,1960.2
1126.15,1956.9
1128.75,1961.3
1131.36,1960.0
1133.97,1968.3
1136.57,1975.2
1139.17,1990.0
1141.77,2008.2
1144.38,2042.5
1146.98,2074.15
1149.58,2118.85
1152.18,2137.25
1154.77,2148.15
1157.37,2133.4
1159.97,2114.75
1162.56,2109.5
1165.16,2123.9
1167.75,2119.25
1170.35,2093.55
1172.94,2061.85
1175.53,2027.1
1178.12,2002.65
1180.71,1976.95
1183.3,1969.7
1185.89,1966.55
1188.48,1966.8
1191.06,1964.0
1193.65,1966.0
1196.23,1966.65
1198.82,1973.0
1201.4,1973.05
1203.99,1978.55
1206.57,1984.2
1209.15,1988.2
1211.73,2004.65
1214.31,2013.6
1216.89,2032.95
1219.46,2036.95
1222.04,2034.6
1224.62,2029.0
1227.19,2007.65
1229.77,1982.75
1232.34,1986.65
1234.92,1978.45
1237.49,1977.45
1240.06,1980.1
1242.63,1974.95
1245.2,1976.15
1247.77,1979.8
1250.34,1988.65
1252.9,1989.9
1255.47,1992.25
1258.04,1988.65
1260.6,1984.6
1263.17,1974.1
1265.73,1974.3
1268.29,1965.05
1270.85,1972.95
1273.41,1969.75
1275.97,1973.25
1278.53,1968.95
1281.09,1977.05
1283.65,1982.0
1286.21,1987.9
1288.76,1990.75
1291.32,1995.75
1293.87,2001.15
1296.43,2006.95
1298.98,2006.9
1301.53,2016.2
1304.08,2017.85
1306.63,2013.55
1309.18,2005.5
1311.73,2009.9
1314.28,2017.0
1316.83,2038.25
1319.38,2061.2
1321.92,2097.1
1324.47,2142.0
1327.01,2180.15
1329.55,2197.8
1332.1,2183.25
1334.64,2146.15
1337.18,2106.45
1339.72,2058.6
1342.26,2044.65
1344.8,2030.25
1347.34,2023.75
1349.87,2025.8
1352.41,2043.6
1354.95,2058.9
1357.48,2071.3
1360.01,2081.8
1362.55,2073.75
1365.08,2058.3
1367.61,2044.15
1370.14,2030.6
1372.67,2015.0
1375.2,2011.15
1377.73,2011.0
1380.26,1993.35
1382.78,1994.75
1385.31,1983.85
1387.84,1984.65
1390.36,1980.35
1392.88,1974.45
1395.41,1974.35
1397.93,1981.1
1400.45,1974.9
1402.97,1981.75
1405.49,1972.85
1408.01,1974.4
1410.53,1976.2
1413.05,1982.2
1415.56,1978.35
1418.08,1982.9
1420.59,1988.0
1423.11,1995.15
1425.62,2009.6
1428.14,2020.2
1430.65,2043.85
1433.16,2080.0
1435.67,2099.3
1438.18,2109.65
1440.69,2112.25
1443.2,2105.45
1445.7,2124.35
1448.21,2144.35
1450.72,2181.65
1453.22,2231.75
1455.72,2291.25
1458.23,2309.95
1460.73,2307.15
1463.23,2270.8
1465.73,2213.35
1468.23,2153.35
1470.73,2088.3
1473.23,2052.25
1475.73,2027.4
1478.23,2010.85
1480.72,1997.4
1483.22,1995.75
1485.72,1994.45
1488.21,1993.95
1490.7,1990.35
1493.2,1988.45
1495.69,1984.7
1498.18,1981.25
1500.67,1986.7
1503.16,1985.95
1505.65,1987.3
1508.14,1978.85
1510.62,1981.5
1513.11,1983.75
1515.59,1981.1
1518.08,1990.2
1520.56,1986.6
1523.05,1984.85
1525.53,1982.25
1528.01,1990.75
1530.49,1985.1
1532.97,1982.15
1535.45,1990.15
1537.93,1988.25
1540.41,1987.8
1542.89,1992.55
1545.36,1989.15
1547.84,1990.1
1550.31,1987.25
1552.79,1994.1
1555.26,1987.75
1557.73,1988.45
1560.21,1986.75
1562.68,1989.35
1565.15,1998.2
1567.62,1993.65
1570.09,1989.25
1572.56,1993.5
1575.02,1992.75
1577.49,1988.3
1579.95,1989.8
1582.42,1987.55
1584.88,1993.0
1587.35,1993.1
1589.81,1989.65
1592.27,1987.05
1594.73,1996.85
1597.19,1995.6
1599.65,1991.1
1602.11,1991.1
1604.57,1993.95
1607.03,1990.5
1609.49,1999.35
1611.94,2001.6
1614.4,1998.9
1616.85,1993.15
1619.31,1998.55
1621.76,1994.2
1624.21,1998.65
1626.66,1991.9
1629.11,1999.8
1631.56,2002.85
1634.01,2000.0
1636.46,2002.2
1638.91,1993.35
1641.36,2000.5
1643.8,2000.75
1646.25,2002.05
1648.69,1998.4
1651.14,2007.75
1653.58,2006.15
1656.02,2001.45
1658.46,1999.2
1660.9,2001.15
1663.35,2003.9
1665.78,2004.25
1668.22,2005.75
1670.66,2006.5
1673.1,2008.0
1675.54,1999.8
1677.97,1997.65
1680.41,2002.65
1682.84,2007.45
1685.27,2008.2
1687.71,2004.55
1690.14,2006.65
1692.57,2004.8
1695.0,2002.8
1697.43,2001.3
1699.86,2007.25
1702.29,2010.7
1704.71,2003.1
1707.14,2005.25
1709.57,2012.25
1711.99,2013.4
1714.42,2004.55
1716.84,2000.8
1719.26,2007.25
1721.69,2006.85
1724.11,2004.15
1726.53,2010.7
1728.95,2009.2
1731.37,2002.3
1733.79,2006.1
1736.21,2006.45
1738.62,2010.45
1741.04,2005.65
1743.46,2004.55
1745.87,2010.4
1748.28,2017.3
1750.7,2007.9
1753.11,2012.8
1755.52,2015.7
1757.93,2020.3
1760.34,2018.65
1762.75,2012.1
1765.16,2013.0
1767.57,2015.4
1769.98,2020.2
1772.39,2014.0
1774.79,2023.1
1777.2,2019.35
1779.6,2018.1
1782.01,2028.8
1784.41,2026.5
1786.81,2019.9
1789.21,2016.75
1791.62,2020.0
1794.02,2024.55
1796.41,2018.2
1798.81,2017.65
1801.21,2023.15
1803.61,2015.9
1806.01,2014.55
1808.4,2019.9
1810.8,2017.25
1813.19,2019.8
1815.59,2019.6
1817.98,2016.35
1820.37,2024.65
1822.76,2031.5
1825.15,2021.75
1827.54,2017.8
1829.93,2009.9
1832.32,2015.85
1834.71,2024.85
1837.1,2019.35
1839.48,2020.45
1841.87,2031.5
1844.25,2026.45
1846.64,2023.9
1849.02,2030.35
1851.4,2023.2
1853.79,2031.75
1856.17,2028.5
1858.55,2031.6
1860.93,2038.15
1863.31,2033.95
1865.69,2035.05
1868.06,2038.0
1870.44,2036.3
1872.82,2029.9
1875.19,2032.3
1877.57,2034.75
1879.94,2034.65
1882.31,2037.85
1884.69,2038.4
1887.06,2034.8
1889.43,2036.55
1891.8,2033.3
1894.17,2040.9
1896.54,2045.5
1898.91,2037.85
1901.28,2040.9
1903.64,2034.0
1906.01,2034.75
1908.38,2045.6
1910.74,2038.3
1913.1,2037.95
1915.47,2038.35
1917.83,2041.25
1920.19,2045.45
1922.55,2044.7
1924.91,2043.6
1927.27,2045.05
1929.63,2041.3
1931.99,2046.55
1934.35,2042.3
1936.71,2038.6
1939.06,2040.75
1941.42,2043.8
1943.77,2039.1
1946.13,2043.35
1948.48,2044.0
1950.83,2051.05
1953.19,2046.05
1955.54,2043.4
1957.89,2032.15
1960.24,2034.85
1962.59,2039.85
1964.93,2039.4
1967.28,2041.75
1969.63,2038.1
1971.98,2040.95
1974.32,2036.75
1976.67,2040.85
1979.01,2046.65
1981.35,2037.7
1983.7,2044.7
1986.04,2037.5
1988.38,2041.4
1990.72,2045.9
1993.06,2053.85
1995.4,2050.55
1997.74,2043.35
2000.08,2043.8
2002.41,2043.4
2004.75,2041.45
2007.09,2044.2
2009.42,2040.9
2011.75,2045.95
2014.09,2043.55
2016.42,2049.6
2018.75,2043.0
2021.08,2041.85
2023.42,2040.6
2025.75,2041.0
2028.08,2043.4
2030.4,2046.5
2032.73,2053.2
2035.06,2048.85
2037.39,2041.2
2039.71,2042.45
2042.04,2041.9
2044.36,2037.4
2046.69,2040.4
2049.01,2041.95
2051.33,2038.05
2053.65,2037.05
2055.97,2046.05
2058.29,2043.05
2060.61,2043.4
2062.93,2043.65
2065.25,2039.4
2067.57,2036.3
2069.88,2038.0
2072.2,2037.6
2074.52,2037.15
2076.83,2029.6
2079.15,2041.65
2081.46,2040.65
2083.77,2042.0
2086.08,2035.0
2088.39,2040.9
2090.7,2041.0
2093.01,2042.7
2095.32,2034.25
2097.63,2032.65
2099.94,2038.1
2102.25,2039.4
2104.55,2037.0
2106.86,2037.1
2109.16,2043.15
2111.47,2035.55
2113.77,2037.35
2116.08,2040.4
2118.38,2031.5
2120.68,2040.5
2122.98,2032.15
2125.28,2032.0
2127.58,2033.35
2129.88,2031.35
2132.18,2035.65
2134.47,2034.55
2136.77,2034.3
2139.07,2038.6
2141.36,2036.75
2143.66,2037.95
2145.95,2037.35
2148.24,2031.9
2150.54,2031.35
2152.83,2028.55
2155.12,2021.8
2157.41,2029.15
2159.7,2031.0
2161.99,2035.55
2164.28,2032.6
2166.57,2030.4
2168.85,2023.25
2171.14,2028.05
2173.43,2032.75
2175.71,2036.15
2178.0,2029.7
2180.28,2030.9
2182.56,2023.7
2184.84,2029.9
2187.13,2030.0
2189.41,2025.95
2191.69,2031.35
2193.97,2021.15
2196.25,2024.85
2198.52,2019.95
2200.8,2025.0
2203.08,2033.55
2205.36,2026.5
2207.63,2025.0
2209.91,2024.25
2212.18,2022.85
2214.45,2021.55
2216.73,2021.7
2219.0,2030.95
2221.27,2025.8
2223.54,2030.2
2225.81,2023.0
2228.08,2031.0
2230.35,2033.2
2232.62,2029.45
2234.89,2027.05
2237.15,2028.7
2239.42,2023.3
2241.68,2022.0
2243.95,2025.35
2246.21,2021.25
2248.48,2027.5
2250.74,2020.75
2253.0,2017.95
2255.26,2026.3
2257.52,2029.15
2259.78,2027.85
2262.04,2030.3
2264.3,2032.7
2266.56,2025.8
2268.82,2026.05
2271.07,2028.95
2273.33,2021.25
2275.58,2026.2
2277.84,2026.4
2280.09,2020.2
2282.35,2022.65
2284.6,2020.15
2286.85,2024.65
2289.1,2020.15
2291.35,2018.45
2293.6,2017.2
2295.85,2025.4
2298.1,2020.4
2300.35,2026.15
2302.6,2021.15
2304.84,2027.3
2307.09,2024.15
2309.33,2026.45
2311.58,2026.95
2313.82,2023.4
2316.07,2018.85
2318.31,2027.1
2320.55,2028.3
2322.79,2021.8
2325.03,2023.15
2327.27,2019.75
2329.51,2023.35
2331.75,2021.7
2333.99,2022.8
2336.23,2022.65
2338.46,2021.65
2340.7,2020.7
2342.93,2022.2
2345.17,2022.95
2347.4,2022.6
2349.64,2017.1
2351.87,2026.95
2354.1,2026.95
2356.33,2024.35
2358.56,2025.75
2360.79,2011.1
2363.02,2012.4
2365.25,2013.85
2367.48,2018.1
2369.71,2012.3
2371.93,2015.95
2374.16,2018.65
2376.38,2010.9
2378.61,2017.2
2380.83,2020.05
2383.06,2022.35
2385.28,2020.85
2387.5,2023.05
2389.72,2014.55
2391.94,2010.85
2394.16,2015.15
2396.38,2009.8
2398.6,2011.55
2400.82,2011.9
2403.04,2017.35
2405.26,2023.3
2407.47,2014.3
2409.69,2014.55
2411.9,2015.7
2414.12,2010.1
2416.33,2018.35
2418.54,2014.9
2420.76,2015.65
2422.97,2020.6
2425.18,2020.3
2427.39,2014.1
2429.6,2013.25
2431.81,2011.05
2434.02,2011.25
2436.22,2015.45
2438.43,2016.8
2440.64,2014.15
2442.84,2014.7
2445.05,2016.95
2447.25,2013.05
2449.46,2012.6
2451.66,2007.15
2453.86,2006.5
2456.06,2008.7
2458.27,2018.95
2460.47,2008.75
2462.67,2006.0
2464.87,2005.25
2467.06,2012.25
2469.26,2019.1
2471.46,2012.3
2473.66,2010.95
2475.85,2015.4
2478.05,2002.2
2480.24,2013.8
2482.44,2013.1
2484.63,2006.0
2486.82,2002.8
2489.02,2002.2
2491.21,2009.75
2493.4,2006.8
2495.59,2012.5
2497.78,2009.0
2499.97,2012.7
2502.16,2004.95
2504.34,2008.95
2506.53,2005.0
2508.72,2008.15
2510.9,2009.55
2513.09,2007.35
2515.27,2005.5
2517.46,2011.5
2519.64,2009.7
2521.82,2010.85
2524.0,2019.8
2526.19,2021.1
2528.37,2016.65
2530.55,2014.4
2532.73,2009.05
2534.9,2012.8
2537.08,2007.6
2539.26,2005.65
2541.44,2010.35
2543.61,2008.95
2545.79,2012.75
2547.96,2011.95
2550.14,2009.8
2552.31,2012.6
2554.48,2009.45
2556.66,2009.95
2558.83,2015.75
2561.0,2017.65
2563.17,2012.15
2565.34,2010.15
2567.51,2005.85
2569.68,2008.05
2571.85,2009.1
2574.01,2009.0
2576.18,2006.35
2578.35,2011.6
2580.51,2011.55
2582.68,2017.85
2584.84,2018.65
2587.0,2021.45
2589.17,2017.25
2591.33,2019.2
2593.49,2019.2
2595.65,2021.55
2597.81,2020.7
2599.97,2022.5
2602.13,2016.0
2604.29,2010.15
2606.45,2021.2
2608.6,2016.9
2610.76,2024.15
2612.92,2024.25
2615.07,2018.6
2617.23,2014.15
2619.38,2015.7
2621.53,2023.35
2623.69,2020.3
2625.84,2014.0
2627.99,2009.5
2630.14,2016.3
2632.29,2022.25
2634.44,2020.6
2636.59,2017.15
2638.74,2012.4
2640.89,2029.35
2643.03,2033.55
2645.18,2028.5
2647.33,2037.05
2649.47,2041.15
2651.62,2049.75
2653.76,2046.45
2655.9,2042.45
2658.05,2044.55
2660.19,2043.35
2662.33,2041.85
2664.47,2048.35
2666.61,2040.15
2668.75,2035.05
2670.89,2039.9
2673.03,2034.85
2675.17,2040.6
2677.3,2040.6
2679.44,2040.4
2681.58,2036.15
2683.71,2036.0
2685.84,2040.5
2687.98,2040.15
2690.11,2033.1
2692.25,2043.25
2694.38,2042.2
2696.51,2046.2
2698.64,2051.05
2700.77,2053.15
2702.9,2061.9
2705.03,2078.8
2707.16,2087.25
2709.29,2084.35
2711.41,2084.7
2713.54,2098.3
2715.67,2111.2
2717.79,2134.45
2719.92,2143.45
2722.04,2153.05
2724.16,2164.3
2726.29,2151.75
2728.41,2131.8
2730.53,2119.85
2732.65,2107.7
2734.77,2092.95
2736.89,2082.6
2739.01,2080.6
2741.13,2075.95
2743.25,2070.75
2745.36,2068.7
2747.48,2051.35
2749.6,2054.3
2751.71,2047.6
2753.83,2036.65
2755.94,2040.65
2758.06,2038.95
2760.17,2035.4
2762.28,2031.9
2764.39,2033.4
2766.5,2025.0
2768.61,2031.9
2770.72,2030.75
2772.83,2021.0
2774.94,2029.15
2777.05,2031.2
2779.16,2025.25
2781.27,2023.85
2783.37,2030.65
2785.48,2028.45
2787.58,2035.95
2789.69,2030.95
2791.79,2034.05
2793.89,2033.05
2796.0,2037.25
2798.1,2037.65
2800.2,2036.15
2802.3,2037.25
2804.4,2035.9
2806.5,2039.45
2808.6,2052.1
2810.7,2057.4
2812.8,2065.25
2814.89,2078.0
2816.99,2080.6
2819.09,2094.65
2821.18,2112.55
2823.28,2135.1
2825.37,2181.55
2827.46,2230.55
2829.56,2302.95
2831.65,2400.6
2833.74,2549.65
2835.83,2691.8
2837.92,2808.0
2840.01,2865.25
2842.1,2854.55
2844.19,2786.25
2846.28,2674.7
2848.37,2556.75
2850.45,2478.35
2852.54,2452.4
2854.63,2434.1
2856.71,2474.7
2858.8,2596.1
2860.88,2763.3
2862.96,2986.85
2865.05,3169.65
2867.13,3317.35
2869.21,3446.6
2871.29,3476.15
2873.37,3485.45
2875.45,3604.55
2877.53,3710.3
2879.61,3819.2
2881.69,3919.5
2883.76,3981.45
2885.84,4026.45
2887.92,3942.1
2889.99,3790.45
2892.07,3700.2
2894.14,3598.85
2896.22,3508.9
2898.29,3519.15
2900.36,3515.5
2902.43,3558.4
2904.5,3567.45
2906.58,3516.4
2908.65,3455.5
2910.72,3372.5
2912.78,3277.35
2914.85,3171.1
2916.92,3120.6
2918.99,3128.5
2921.05,3122.8
2923.12,3139.75
2925.19,3118.2
2927.25,3066.05
2929.32,3037.35
2931.38,2945.45
2933.44,2844.55
2935.5,2717.55
2937.57,2617.45
2939.63,2569.35
2941.69,2573.0
2943.75,2626.55
2945.81,2703.8
2947.87,2817.05
2949.93,2903.85
2951.98,3029.65
2954.04,3121.1
2956.1,3137.65
2958.15,3128.85
2960.21,3095.9
2962.26,3090.4
2964.32,3057.4
2966.37,2962.3
2968.42,2817.5
2970.48,2706.6
2972.53,2604.75
2974.58,2486.6
2976.63,2375.15
2978.68,2310.35
2980.73,2267.1
2982.78,2213.5
2984.83,2163.0
2986.87,2155.4
2988.92,2130.65
2990.97,2114.75
2993.01,2105.05
2995.06,2083.0
2997.1,2083.4
2999.15,2066.85
3001.19,2064.55
3003.24,2055.0
3005.28,2047.15
3007.32,2050.75
3009.36,2040.95
3011.4,2036.85
3013.44,2028.85
3015.48,2031.6
3017.52,2029.5
3019.56,2025.85
3021.6,2023.85
3023.63,2018.55
3025.67,2019.0
3027.71,2014.35
3029.74,2012.7
3031.78,2015.7
3033.81,2007.0
3035.85,2013.6
3037.88,2010.05
3039.91,2011.2
3041.94,2012.4
3043.97,2004.0
3046.01,2005.55
3048.04,2009.35
3050.07,2003.1
3052.09,2003.05
3054.12,2002.95
3056.15,1998.65
3058.18,2001.35
3060.2,2004.35
3062.23,2000.4
3064.26,2001.8
3066.28,1995.15
3068.31,1997.15
3070.33,1995.5
3072.35,1994.75
