nm,Intensity
791.75,5899.25
792.024,5911.15
792.298,5889.95
792.572,5852.85
792.846,5870.9
793.12,5887.85
793.394,5852.7
793.668,5874.15
793.942,5893.45
794.215,5897.55
794.489,5849.15
794.763,5796.25
795.037,5865.1
795.311,5832.5
795.585,5845.9
795.859,5854.1
796.133,5822.85
796.407,5803.7
796.681,5792.95
796.955,5808.3
797.228,5864.4
797.502,5870.7
797.776,5860.95
798.05,5824.35
798.324,5805.85
798.598,5790.6
798.871,5831.15
799.145,5770.65
799.419,5770.65
799.693,5757.85
799.967,5833.1
800.241,5850.25
800.514,5809.85
800.788,5786.95
801.062,5799.6
801.336,5811.05
801.61,5772.2
801.883,5781.3
802.157,5740.0
802.431,5716.8
802.705,5747.05
802.978,5740.1
803.252,5772.2
803.526,5746.8
803.8,5700.05
804.073,5705.25
804.347,5699.5
804.621,5697.7
804.894,5731.95
805.168,5683.9
805.442,5710.35
805.715,5725.1
805.989,5659.9
806.263,5676.7
806.536,5745.4
806.81,5672.45
807.084,5598.9
807.357,5630.65
807.631,5659.55
807.905,5668.15
808.178,5652.65
808.452,5628.6
808.726,5615.7
808.999,5595.9
809.273,5596.4
809.546,5623.4
809.82,5595.25
810.094,5556.35
810.367,5556.35
810.641,5574.05
810.914,5533.25
811.188,5532.3
811.461,5543.7
811.735,5484.05
812.008,5509.9
812.282,5527.8
812.556,5490.95
812.829,5496.6
813.103,5501.15
813.376,5507.85
813.65,5492.55
813.923,5457.75
814.197,5441.6
814.47,5449.65
814.744,5430.5
815.017,5440.15
815.29,5430.4
815.564,5448.7
815.837,5412.55
816.111,5394.0
816.384,5389.65
816.658,5380.1
816.931,5383.25
817.205,5382.65
817.478,5349.8
817.751,5347.4
818.025,5345.35
818.298,5348.8
818.572,5358.6
818.845,5363.7
819.118,5353.7
819.392,5302.9
819.665,5321.3
819.938,5326.8
820.212,5321.1
820.485,5282.55
820.758,5307.9
821.032,5283.75
821.305,5262.5
821.578,5249.1
821.852,5278.3
822.125,5254.25
822.398,5247.4
822.672,5208.95
822.945,5204.65
823.218,5233.15
823.491,5232.8
823.765,5232.05
824.038,5225.2
824.311,5216.1
824.585,5228.9
824.858,5170.3
825.131,5166.55
825.404,5191.05
825.677,5175.25
825.951,5140.7
826.224,5160.85
826.497,5179.2
826.77,5139.05
827.043,5133.8
827.317,5151.25
827.59,5143.5
827.863,5139.5
828.136,5137.6
828.409,5110.8
828.682,5082.95
828.956,5087.05
829.229,5102.55
829.502,5068.0
829.775,5096.65
830.048,5083.7
830.321,5084.05
830.594,5056.4
830.867,5053.55
831.14,5035.7
831.413,5026.9
831.687,5034.7
831.96,5038.85
832.233,5037.5
832.506,5027.7
832.779,5037.3
833.052,5041.3
833.325,5003.4
833.598,5015.35
833.871,5000.65
834.144,4976.75
834.417,4984.45
834.69,4937.7
834.963,4939.95
835.236,4965.3
835.509,4988.85
835.782,4993.05
836.055,4967.05
836.328,4979.2
836.601,4963.05
836.874,4923.8
837.147,4918.9
837.419,4935.05
837.692,4925.4
837.965,4932.0
838.238,4943.6
838.511,4902.0
838.784,4881.0
839.057,4890.55
839.33,4897.15
839.603,4897.75
839.876,4879.65
840.148,4867.55
840.421,4872.35
840.694,4886.25
840.967,4868.45
841.24,4852.65
841.513,4845.15
841.785,4848.15
842.058,4869.05
842.331,4853.4
842.604,4841.15
842.877,4842.3
843.149,4822.1
843.422,4802.7
843.695,4816.8
843.968,4818.95
844.24,4796.8
844.513,4800.2
844.786,4795.8
845.059,4773.8
845.331,4786.05
845.604,4780.05
845.877,4773.9
846.15,4783.8
846.422,4772.6
846.695,4767.25
846.968,4765.65
847.24,4724.3
847.513,4727.9
847.786,4733.25
848.058,4741.75
848.331,4716.9
848.604,4727.0
848.876,4717.5
849.149,4721.3
849.421,4721.35
849.694,4733.3
849.967,4714.7
850.239,4702.25
850.512,4688.85
850.784,4688.5
851.057,4690.05
851.33,4681.6
851.602,4692.3
851.875,4695.6
852.147,4687.2
852.42,4664.5
852.692,4664.65
852.965,4640.7
853.237,4618.85
853.51,4644.15
853.782,4653.5
854.055,4646.0
854.327,4630.05
854.6,4648.15
854.872,4644.7
855.145,4618.45
855.417,4609.0
855.69,4609.05
855.962,4615.85
856.235,4608.8
856.507,4599.1
856.779,4608.8
857.052,4609.9
857.324,4609.4
857.597,4612.9
857.869,4630.5
858.142,4613.65
858.414,4606.95
858.686,4620.7
858.959,4615.05
859.231,4600.15
859.503,4587.65
859.776,4602.25
860.048,4582.35
860.32,4585.85
860.593,4584.25
860.865,4563.5
861.137,4547.0
861.41,4576.95
861.682,4566.3
861.954,4564.8
862.226,4560.7
862.499,4562.55
862.771,4531.05
863.043,4539.15
863.315,4537.9
863.588,4526.1
863.86,4532.75
864.132,4536.35
864.404,4537.7
864.677,4525.4
864.949,4516.45
865.221,4517.6
865.493,4491.0
865.765,4492.2
866.038,4491.95
866.31,4491.5
866.582,4487.9
866.854,4477.9
867.126,4477.8
867.398,4470.4
867.67,4479.5
867.943,4476.4
868.215,4477.55
868.487,4476.4
868.759,4475.45
869.031,4450.55
869.303,4442.4
869.575,4451.75
869.847,4447.95
870.119,4464.15
870.391,4458.75
870.663,4435.45
870.935,4430.9
871.207,4429.2
871.479,4433.8
871.751,4459.3
872.023,4440.9
872.295,4442.8
872.567,4429.0
872.839,4422.0
873.111,4443.95
873.383,4448.7
873.655,4443.0
873.927,4420.75
874.199,4410.8
874.471,4403.5
874.743,4403.95
875.015,4387.95
875.287,4395.5
875.559,4403.25
875.831,4389.25
876.103,4402.1
876.374,4390.75
876.646,4385.65
876.918,4386.9
877.19,4389.45
877.462,4399.45
877.734,4393.85
878.006,4367.6
878.277,4379.85
878.549,4362.05
878.821,4362.35
879.093,4363.05
879.365,4351.85
879.636,4358.15
879.908,4342.2
880.18,4334.5
880.452,4319.1
880.723,4335.0
880.995,4323.65
881.267,4331.75
881.539,4354.0
881.81,4350.7
882.082,4332.85
882.354,4330.55
882.626,4337.6
882.897,4322.85
883.169,4322.8
883.441,4320.2
883.712,4302.7
883.984,4307.5
884.256,4310.3
884.527,4296.05
884.799,4283.6
885.07,4289.55
885.342,4288.65
885.614,4282.6
885.885,4295.8
886.157,4287.8
886.428,4274.85
886.7,4276.4
886.972,4267.95
887.243,4263.55
887.515,4251.6
887.786,4245.65
888.058,4258.65
888.329,4257.55
888.601,4253.25
888.872,4249.95
889.144,4241.05
889.415,4224.1
889.687,4229.25
889.958,4227.4
890.23,4236.0
890.501,4246.1
890.773,4215.9
891.044,4215.05
891.316,4203.15
891.587,4200.0
891.859,4220.65
892.13,4217.75
892.401,4208.5
892.673,4194.75
892.944,4193.65
893.216,4192.4
893.487,4192.4
893.758,4203.25
894.03,4180.85
894.301,4172.65
894.572,4185.7
894.844,4197.35
895.115,4197.5
895.386,4189.35
895.658,4190.5
895.929,4183.35
896.2,4180.95
896.472,4176.25
896.743,4159.3
897.014,4165.55
897.285,4171.05
897.557,4177.4
897.828,4163.35
898.099,4151.1
898.37,4153.4
898.642,4153.35
898.913,4150.45
899.184,4137.4
899.455,4136.9
899.726,4136.4
899.998,4134.5
900.269,4129.25
900.54,4126.4
900.811,4126.45
901.082,4122.6
901.353,4115.05
901.625,4107.35
901.896,4110.9
902.167,4126.7
902.438,4115.0
902.709,4107.6
902.98,4103.1
903.251,4106.25
903.522,4103.95
903.793,4090.95
904.064,4100.0
904.335,4096.0
904.606,4096.45
904.877,4094.85
905.148,4087.25
905.419,4079.05
905.69,4069.6
905.961,4078.7
906.232,4078.25
906.503,4081.05
906.774,4074.6
907.045,4065.05
907.316,4061.4
907.587,4059.05
907.858,4064.35
908.129,4065.3
908.4,4066.7
908.671,4056.9
908.942,4048.1
909.213,4053.4
909.484,4058.9
909.755,4063.9
910.025,4057.95
910.296,4045.65
910.567,4037.55
910.838,4036.3
911.109,4032.3
911.38,4032.5
911.65,4033.75
911.921,4033.65
912.192,4033.7
912.463,4033.05
912.734,4023.8
913.004,4022.55
913.275,4025.45
913.546,4026.15
913.817,4024.75
914.087,4023.25
914.358,4011.85
914.629,4004.85
914.9,3998.4
915.17,4005.8
915.441,4004.45
915.712,4008.85
915.982,4006.0
916.253,4002.3
916.524,3997.1
916.794,3995.25
917.065,4001.25
917.336,3991.75
917.606,3994.1
917.877,4001.95
918.147,4002.1
918.418,3998.1
918.689,3985.0
918.959,3986.15
919.23,3976.75
919.5,3978.7
919.771,3980.65
920.042,3980.95
920.312,3981.6
920.583,3983.4
920.853,3980.3
921.124,3971.95
921.394,3967.2
921.665,3966.95
921.935,3960.55
922.206,3956.35
922.476,3959.4
922.747,3959.5
923.017,3963.45
923.287,3958.15
923.558,3954.25
923.828,3949.0
924.099,3952.95
924.369,3945.35
924.639,3948.35
924.91,3946.35
925.18,3941.45
925.451,3943.6
925.721,3941.1
925.991,3944.4
926.262,3940.35
926.532,3932.65
926.802,3931.5
927.073,3931.8
927.343,3935.45
927.613,3929.25
927.884,3929.45
928.154,3922.45
928.424,3920.45
928.694,3923.95
928.965,3921.9
929.235,3923.7
929.505,3919.1
929.775,3909.0
930.046,3911.45
930.316,3910.4
930.586,3912.05
930.856,3907.4
931.126,3901.9
931.397,3900.5
931.667,3901.45
931.937,3902.0
932.207,3902.3
932.477,3902.35
932.747,3900.0
933.017,3901.3
933.288,3899.35
933.558,3894.9
933.828,3889.05
934.098,3887.45
934.368,3889.05
934.638,3890.35
934.908,3888.85
935.178,3890.15
935.448,3886.4
935.718,3884.75
935.988,3883.9
936.258,3884.3
936.528,3880.6
936.798,3877.0
937.068,3877.5
937.338,3874.5
937.608,3872.7
937.878,3871.25
938.148,3876.6
938.418,3874.05
938.688,3870.65
938.958,3870.15
939.228,3865.8
939.498,3867.95
939.767,3870.15
940.037,3865.1
940.307,3866.2
940.577,3863.5
940.847,3861.95
941.117,3866.35
941.387,3860.85
941.656,3857.75
941.926,3857.2
942.196,3858.1
942.466,3852.4
942.736,3853.4
943.005,3855.75
943.275,3856.65
943.545,3855.3
943.815,3851.7
944.084,3848.7
944.354,3844.9
944.624,3849.1
944.894,3845.5
945.163,3843.75
945.433,3844.2
945.703,3845.05
945.972,3843.85
946.242,3842.8
946.512,3838.75
946.781,3839.7
947.051,3842.75
947.321,3840.95
947.59,3839.6
947.86,3839.55
948.13,3836.3
948.399,3828.25
948.669,3829.3
948.938,3832.05
949.208,3829.9
949.477,3832.45
949.747,3830.65
950.016,3829.7
950.286,3832.0
950.556,3829.05
950.825,3828.25
951.095,3823.5
951.364,3822.75
951.634,3822.05
951.903,3824.75
952.172,3823.0
952.442,3825.2
952.711,3825.35
952.981,3825.15
953.25,3820.4
953.52,3819.25
953.789,3813.6
954.058,3815.0
954.328,3815.25
954.597,3815.35
954.867,3816.9
955.136,3816.15
955.405,3818.15
955.675,3813.8
955.944,3814.25
956.213,3813.5
956.483,3815.35
956.752,3815.75
957.021,3814.6
957.29,3808.7
957.56,3810.7
957.829,3809.4
958.098,3809.35
958.367,3806.95
958.637,3802.1
958.906,3804.4
959.175,3802.3
959.444,3807.0
959.714,3805.85
959.983,3804.0
960.252,3805.1
960.521,3802.0
960.79,3798.8
961.059,3801.4
961.328,3799.85
961.598,3802.0
961.867,3800.05
962.136,3798.25
962.405,3797.3
962.674,3797.75
962.943,3797.4
963.212,3798.15
963.481,3799.9
963.75,3798.3
964.019,3797.9
964.288,3797.65
964.557,3797.15
964.826,3794.95
965.095,3792.35
965.364,3792.75
965.633,3792.35
965.902,3791.9
966.171,3790.15
966.44,3790.9
966.709,3788.25
966.978,3789.75
967.247,3788.4
967.516,3790.05
967.785,3788.1
968.054,3786.85
968.323,3787.6
968.591,3789.05
968.86,3784.75
969.129,3788.0
969.398,3788.8
969.667,3785.3
969.936,3786.0
970.204,3784.35
970.473,3785.0
970.742,3784.2
971.011,3782.6
971.28,3783.8
971.548,3783.35
971.817,3782.0
972.086,3780.1
972.355,3781.05
972.623,3780.6
972.892,3781.25
973.161,3779.2
973.429,3780.95
973.698,3778.75
973.967,3779.8
974.235,3780.05
974.504,3779.4
974.773,3778.65
975.041,3777.1
975.31,3777.5
975.579,3777.5
975.847,3775.1
976.116,3775.1
976.384,3775.1
976.653,3775.65
976.922,3773.7
977.19,3775.1
977.459,3773.6
977.727,3776.3
977.996,3772.55
978.264,3770.85
978.533,3773.15
978.801,3772.85
979.07,3772.6
979.338,3771.05
979.607,3770.95
979.875,3770.9
980.143,3772.25
980.412,3769.5
980.68,3769.7
980.949,3770.1
981.217,3769.45
981.486,3769.7
981.754,3769.0
982.022,3768.35
982.291,3767.6
982.559,3767.15
982.827,3768.25
983.096,3767.55
983.364,3766.55
983.632,3768.0
983.901,3767.0
984.169,3766.7
984.437,3767.65
984.705,3767.75
984.974,3766.4
985.242,3766.9
985.51,3766.75
985.778,3766.95
986.047,3766.75
986.315,3763.75
986.583,3763.6
986.851,3763.4
987.119,3766.05
987.388,3762.45
987.656,3762.55
987.924,3763.55
988.192,3763.8
988.46,3763.8
988.728,3763.6
988.996,3763.65
989.264,3761.15
989.533,3762.3
989.801,3762.25
990.069,3761.65
990.337,3761.4
990.605,3760.1
990.873,3760.9
991.141,3760.85
991.409,3761.4
991.677,3759.9
991.945,3759.2
992.213,3760.4
992.481,3759.05
992.749,3759.15
993.017,3758.25
993.285,3761.15
993.553,3758.8
993.82,3757.45
994.088,3757.65
994.356,3758.05
994.624,3758.4
994.892,3758.25
995.16,3756.7
995.428,3756.75
995.696,3757.75
995.963,3757.6
996.231,3757.65
996.499,3755.8
996.767,3754.35
997.035,3758.2
997.302,3756.3
997.57,3754.5
997.838,3757.25
998.106,3755.5
998.373,3754.7
998.641,3754.15
998.909,3754.95
999.177,3753.85
999.444,3753.45
999.712,3755.25
999.98,3755.0
1000.25,3754.5
1000.51,3751.85
1000.78,3751.6
1001.05,3752.2
1001.32,3752.4
1001.59,3752.5
1001.85,3754.2
1002.12,3752.8
1002.39,3752.9
1002.66,3752.35
1002.92,3752.2
1003.19,3751.75
1003.46,3751.55
1003.73,3750.8
1003.99,3751.5
1004.26,3752.55
1004.53,3749.55
1004.8,3751.35
1005.06,3752.3
1005.33,3749.5
1005.6,3750.3
1005.87,3749.0
1006.13,3749.2
1006.4,3750.65
1006.67,3750.0
1006.94,3750.35
1007.2,3750.35
1007.47,3750.55
1007.74,3750.5
1008.0,3750.55
1008.27,3751.25
1008.54,3748.75
1008.81,3749.05
1009.07,3749.95
1009.34,3750.1
1009.61,3749.45
1009.88,3749.45
1010.14,3749.45
1010.41,3750.45
1010.68,3750.35
1010.95,3750.9
1011.21,3750.85
1011.48,3750.6
1011.75,3748.15
1012.01,3749.9
1012.28,3749.35
1012.55,3750.25
1012.82,3750.5
1013.08,3750.75
1013.35,3750.35
1013.62,3749.8
1013.88,3750.9
1014.15,3750.3
1014.42,3747.6
1014.69,3750.6
1014.95,3749.0
1015.22,3749.25
1015.49,3748.5
1015.75,3748.95
1016.02,3747.2
1016.29,3749.75
1016.55,3748.85
1016.82,3749.45
1017.09,3747.15
1017.36,3748.75
1017.62,3748.1
1017.89,3746.3
1018.16,3746.95
1018.42,3746.9
1018.69,3745.5
1018.96,3746.75
1019.22,3745.5
1019.49,3745.6
1019.76,3745.85
1020.02,3746.3
1020.29,3746.35
1020.56,3744.55
1020.83,3744.25
1021.09,3744.65
1021.36,3745.1
1021.63,3743.25
1021.89,3743.35
1022.16,3743.05
1022.43,3743.15
1022.69,3743.95
1022.96,3742.65
1023.23,3745.5
1023.49,3743.25
1023.76,3743.15
1024.03,3743.3
1024.29,3743.75
1024.56,3742.45
1024.83,3743.8
1025.09,3742.05
1025.36,3742.8
1025.63,3741.25
1025.89,3742.05
1026.16,3740.95
1026.43,3739.85
1026.69,3741.35
1026.96,3741.75
1027.23,3742.35
1027.49,3740.85
1027.76,3739.75
1028.03,3741.2
1028.29,3741.4
1028.56,3741.25
1028.83,3740.65
1029.09,3740.3
1029.36,3741.05
1029.62,3740.6
1029.89,3739.35
1030.16,3739.7
1030.42,3739.7
1030.69,3739.25
1030.96,3739.9
1031.22,3738.45
1031.49,3739.6
1031.76,3742.95
1032.02,3740.45
1032.29,3739.7
1032.56,3738.45
1032.82,3739.7
1033.09,3741.3
1033.35,3740.05
1033.62,3740.15
1033.89,3738.2
1034.15,3738.4
1034.42,3740.75
1034.69,3739.75
1034.95,3738.75
1035.22,3739.15
1035.48,3740.0
1035.75,3739.75
1036.02,3740.25
1036.28,3737.7
1036.55,3738.7
1036.81,3738.3
1037.08,3740.6
1037.35,3737.65
1037.61,3738.7
1037.88,3739.7
1038.15,3738.15
1038.41,3737.7
1038.68,3738.9
1038.94,3738.7
1039.21,3738.4
1039.48,3737.4
1039.74,3738.4
1040.01,3739.4
1040.27,3737.35
1040.54,3737.85
1040.81,3739.45
1041.07,3737.85
1041.34,3739.2
1041.6,3739.5
1041.87,3738.25
1042.14,3737.3
1042.4,3737.4
1042.67,3739.0
1042.93,3737.75
1043.2,3737.8
1043.47,3738.6
1043.73,3737.6
1044.0,3736.95
1044.26,3737.55
1044.53,3738.4
1044.79,3737.1
1045.06,3737.4
1045.33,3737.05
1045.59,3738.1
1045.86,3737.0
1046.12,3738.7
1046.39,3737.7
1046.65,3737.75
1046.92,3736.1
1047.19,3737.35
1047.45,3738.0
1047.72,3736.6
1047.98,3737.0
1048.25,3737.8
1048.51,3736.45
1048.78,3737.05
1049.05,3736.3
1049.31,3738.45
1049.58,3737.15
1049.84,3737.0
1050.11,3735.6
1050.37,3737.9
1050.64,3736.95
1050.91,3737.9
1051.17,3737.55
1051.44,3738.3
1051.7,3738.45
1051.97,3736.9
1052.23,3736.55
1052.5,3737.85
1052.76,3737.4
1053.03,3736.75
1053.29,3736.6
1053.56,3735.5
1053.83,3736.1
1054.09,3737.7
1054.36,3735.85
1054.62,3737.1
1054.89,3736.5
1055.15,3736.25
1055.42,3737.7
1055.68,3736.9
1055.95,3737.0
1056.21,3737.1
1056.48,3736.25
1056.74,3736.5
1057.01,3736.45
1057.27,3737.0
1057.54,3737.25
1057.81,3737.3
1058.07,3734.75
1058.34,3737.15
1058.6,3734.45
1058.87,3736.3
1059.13,3736.3
1059.4,3736.4
1059.66,3737.35
1059.93,3737.4
1060.19,3737.7
1060.46,3736.7
1060.72,3736.1
1060.99,3736.8
1061.25,3736.75
1061.52,3735.9
1061.78,3736.55
1062.05,3735.75
1062.31,3736.35
1062.58,3736.3
1062.84,3736.85
1063.11,3735.95
1063.37,3735.55
1063.64,3736.1
1063.9,3736.35
1064.17,3736.7
1064.43,3735.8
1064.7,3735.95
1064.96,3734.85
1065.23,3735.4
1065.49,3736.85
1065.76,3735.85
1066.02,3735.75
1066.29,3736.1
1066.55,3736.8
1066.82,3735.65
1067.08,3735.5
1067.35,3735.85
1067.61,3734.25
1067.88,3734.55
