cm-1,Intensity
-123.878,1856.9
-120.866,1857.15
-117.855,1856.25
-114.845,1857.1
-111.836,1857.05
-108.828,1856.55
-105.821,1856.7
-102.815,1855.25
-99.8104,1858.55
-96.8065,1856.8
-93.8036,1857.35
-90.8016,1856.75
-87.8007,1857.2
-84.8008,1858.8
-81.8019,1857.3
-78.8039,1858.5
-75.807,1856.9
-72.8111,1856.85
-69.8161,1856.2
-66.8222,1857.95
-63.8293,1857.85
-60.8373,1856.75
-57.8464,1856.2
-54.8564,1857.9
-51.8675,1857.7
-48.8795,1859.95
-45.8926,1858.05
-42.9066,1859.6
-39.9216,1858.55
-36.9377,1858.7
-33.9547,1860.0
-30.9727,1858.25
-27.9917,1862.85
-25.0117,1862.55
-22.0326,1865.05
-19.0546,1872.55
-16.0776,1900.75
-13.1015,2010.5
-10.1265,2382.6
-7.1524,2939.15
-4.17932,3821.1
-1.20723,3987.2
1.76388,3357.5
4.734,2519.0
7.70313,1999.35
10.6713,1873.15
13.6384,1863.5
16.6046,1861.85
19.5698,1863.55
22.534,1862.2
25.4972,1863.15
28.4595,1863.0
31.4207,1866.35
34.381,1866.5
37.3403,1869.7
40.2986,1875.65
43.256,1891.65
46.2123,1945.05
49.1677,2109.95
52.1221,2552.45
55.0755,3389.3
58.0279,4556.7
60.9794,5632.9
63.9299,6349.1
66.8794,6659.5
69.8279,6735.7
72.7754,6660.65
75.722,6536.9
78.6676,6246.35
81.6122,6032.0
84.5559,5763.3
87.4985,5528.15
90.4402,5414.65
93.381,5222.95
96.3207,5067.3
99.2595,4806.45
102.197,4593.1
105.134,4401.4
108.07,4260.2
111.005,4140.5
113.939,4028.65
116.872,3861.85
119.804,3708.05
122.735,3551.85
125.665,3418.7
128.594,3296.05
131.522,3194.75
134.449,3116.0
137.375,3075.3
140.301,2983.8
143.225,2913.8
146.148,2859.3
149.07,2821.1
151.992,2825.85
154.912,2790.5
157.832,2741.7
160.75,2719.75
163.668,2710.15
166.584,2686.5
169.5,2668.4
172.414,2660.15
175.328,2664.2
178.241,2646.0
181.153,2655.75
184.063,2624.95
186.973,2617.65
189.882,2625.5
192.79,2615.75
195.697,2601.55
198.603,2605.5
201.508,2623.25
204.412,2600.1
207.315,2609.65
210.217,2631.2
213.119,2636.7
216.019,2637.6
218.918,2622.8
221.816,2620.35
224.714,2626.2
227.61,2622.0
230.506,2647.65
233.4,2641.35
236.294,2632.8
239.187,2634.35
242.078,2625.85
244.969,2641.9
247.859,2652.1
250.748,2699.35
253.636,2714.05
256.523,2729.6
259.409,2733.55
262.294,2743.4
265.178,2780.0
268.061,2780.1
270.943,2790.75
273.824,2780.95
276.705,2765.85
279.584,2720.0
282.463,2692.0
285.34,2670.55
288.217,2650.1
291.092,2618.4
293.967,2595.15
296.841,2585.85
299.713,2580.6
302.585,2572.9
305.456,2545.3
308.326,2546.7
311.195,2532.9
314.063,2514.3
316.93,2509.05
319.797,2528.7
322.662,2529.65
325.526,2519.65
328.389,2539.2
331.252,2538.7
334.113,2523.5
336.974,2519.25
339.834,2509.1
342.692,2520.3
345.55,2524.45
348.407,2523.85
351.263,2541.35
354.118,2538.9
356.972,2550.45
359.825,2549.75
362.677,2560.85
365.529,2567.7
368.379,2552.1
371.228,2539.75
374.077,2555.55
376.924,2567.3
379.771,2546.1
382.616,2531.05
385.461,2547.95
388.305,2553.55
391.148,2557.55
393.99,2556.5
396.831,2563.25
399.671,2571.15
402.51,2587.3
405.348,2584.15
408.186,2619.55
411.022,2615.65
413.858,2603.1
416.692,2580.95
419.526,2557.25
422.359,2560.45
425.19,2559.1
428.021,2578.8
430.851,2608.8
433.68,2592.9
436.508,2594.15
439.335,2593.05
442.162,2594.45
444.987,2583.8
447.811,2582.8
450.635,2581.65
453.458,2609.9
456.279,2609.55
459.1,2596.05
461.92,2602.8
464.739,2591.1
467.557,2609.85
470.374,2619.45
473.19,2607.9
476.005,2599.7
478.82,2609.75
481.633,2619.9
484.445,2623.0
487.257,2629.1
490.068,2618.75
492.878,2626.7
495.686,2638.25
498.494,2632.0
501.301,2633.15
504.107,2625.55
506.913,2622.75
509.717,2640.7
512.52,2657.35
515.323,2672.45
518.124,2670.8
520.925,2658.05
523.725,2651.75
526.524,2658.95
529.322,2650.45
532.119,2639.1
534.915,2674.9
537.71,2689.25
540.504,2680.1
543.298,2668.45
546.09,2673.3
548.882,2692.7
551.673,2699.35
554.462,2692.45
557.251,2698.45
560.039,2692.6
562.826,2714.35
565.613,2700.3
568.398,2718.55
571.182,2702.9
573.966,2705.9
576.748,2715.4
579.53,2691.05
582.311,2693.3
585.091,2690.9
587.87,2698.35
590.648,2680.65
593.425,2692.35
596.201,2688.05
598.977,2696.9
601.751,2707.7
604.525,2703.55
607.298,2689.0
610.069,2707.3
612.84,2737.4
615.61,2754.15
618.38,2764.05
621.148,2829.0
623.915,2965.25
626.682,3191.6
629.447,3471.05
632.212,3537.0
634.976,3397.7
637.739,3138.65
640.501,2892.9
643.262,2796.0
646.022,2753.15
648.781,2785.25
651.54,2786.85
654.297,2776.45
657.054,2778.65
659.81,2791.8
662.565,2800.6
665.319,2801.95
668.072,2776.75
670.824,2781.95
673.575,2803.95
676.326,2839.0
679.075,2817.65
681.824,2826.35
684.572,2811.65
687.319,2834.95
690.065,2827.65
692.81,2846.7
695.554,2926.35
698.298,3027.6
701.04,3095.3
703.782,3122.75
706.522,3065.3
709.262,2998.95
712.001,2953.15
714.739,2923.25
717.477,2856.5
720.213,2852.3
722.948,2851.05
725.683,2861.6
728.417,2859.35
731.15,2881.1
733.882,2891.6
736.613,2885.2
739.343,2877.35
742.072,2886.25
744.801,2888.85
747.528,2858.2
750.255,2877.15
752.981,2890.65
755.706,2899.05
758.43,2927.95
761.153,2930.5
763.875,2925.05
766.597,2923.8
769.317,2922.65
772.037,2912.7
774.756,2950.55
777.474,2980.95
780.191,3006.75
782.907,3052.65
785.623,3103.25
788.337,3180.7
791.051,3280.0
793.764,3348.85
796.475,3340.85
799.186,3318.3
801.897,3252.6
804.606,3217.2
807.314,3297.1
810.022,3332.6
812.729,3376.2
815.434,3364.6
818.139,3379.8
820.844,3420.1
823.547,3384.65
826.249,3384.6
828.951,3372.8
831.651,3414.55
834.351,3458.5
837.05,3479.95
839.748,3535.2
842.445,3655.15
845.142,3831.55
847.837,4001.55
850.532,4152.95
853.225,4287.15
855.918,4347.7
858.61,4292.15
861.302,4202.8
863.992,3993.55
866.681,3768.5
869.37,3654.45
872.058,3590.9
874.745,3584.35
877.431,3576.25
880.116,3555.85
882.8,3605.75
885.484,3623.45
888.166,3553.7
890.848,3497.55
893.529,3469.35
896.209,3457.35
898.888,3414.75
901.566,3381.4
904.244,3341.6
906.921,3267.75
909.596,3240.1
912.271,3173.9
914.945,3161.6
917.619,3172.4
920.291,3161.0
922.963,3150.65
925.633,3165.45
928.303,3176.55
930.972,3193.75
933.64,3196.95
936.308,3175.45
938.974,3199.25
941.64,3201.1
944.304,3188.1
946.968,3162.9
949.631,3176.95
952.294,3146.8
954.955,3149.0
957.615,3196.2
960.275,3233.45
962.934,3236.95
965.592,3227.55
968.249,3244.1
970.905,3259.0
973.561,3262.0
976.215,3261.5
978.869,3294.8
981.522,3291.35
984.174,3285.05
986.826,3281.65
989.476,3302.2
992.126,3325.75
994.774,3351.0
997.422,3349.5
1000.07,3396.2
1002.72,3435.6
1005.36,3413.1
1008.01,3409.85
1010.65,3413.75
1013.29,3442.9
1015.93,3454.55
1018.58,3449.3
1021.22,3434.15
1023.86,3495.25
1026.49,3518.4
1029.13,3493.2
1031.77,3505.0
1034.4,3514.6
1037.04,3496.6
1039.67,3467.5
1042.31,3469.05
1044.94,3461.15
1047.57,3425.9
1050.2,3427.65
1052.83,3426.05
1055.46,3417.2
1058.09,3424.7
1060.72,3408.6
1063.35,3414.1
1065.97,3433.85
1068.6,3447.3
1071.22,3472.6
1073.85,3461.15
1076.47,3496.45
1079.09,3530.2
1081.71,3537.7
1084.33,3592.6
1086.95,3645.8
1089.57,3732.8
1092.19,3863.35
1094.81,3933.55
1097.42,4025.8
1100.04,4035.75
1102.65,4096.4
1105.27,4139.6
1107.88,4173.85
1110.49,4250.35
1113.1,4293.75
1115.71,4336.2
1118.32,4369.7
1120.93,4361.65
1123.54,4250.65
1126.15,4170.6
1128.75,4072.0
1131.36,3927.05
1133.97,3853.65
1136.57,3782.65
1139.17,3701.7
1141.77,3659.7
1144.38,3647.65
1146.98,3602.75
1149.58,3580.25
1152.18,3548.65
1154.77,3530.4
1157.37,3563.65
1159.97,3568.55
1162.56,3584.45
1165.16,3638.05
1167.75,3766.25
1170.35,3890.95
1172.94,3974.95
1175.53,4028.4
1178.12,4026.65
1180.71,3982.1
1183.3,3877.75
1185.89,3776.6
1188.48,3742.0
1191.06,3662.2
1193.65,3638.6
1196.23,3637.8
1198.82,3625.9
1201.4,3599.15
1203.99,3591.6
1206.57,3576.55
1209.15,3586.55
1211.73,3597.6
1214.31,3590.3
1216.89,3630.25
1219.46,3642.05
1222.04,3646.75
1224.62,3646.5
1227.19,3661.4
1229.77,3632.95
1232.34,3707.3
1234.92,3744.45
1237.49,3759.7
1240.06,3797.0
1242.63,3841.9
1245.2,3830.55
1247.77,3846.75
1250.34,3884.9
1252.9,3957.7
1255.47,4034.3
1258.04,4085.35
1260.6,4216.0
1263.17,4311.15
1265.73,4513.5
1268.29,4637.85
1270.85,4725.85
1273.41,4782.3
1275.97,4948.1
1278.53,5205.4
1281.09,5396.9
1283.65,5534.45
1286.21,5562.05
1288.76,5566.0
1291.32,5524.85
1293.87,5462.3
1296.43,5282.55
1298.98,5012.15
1301.53,4846.4
1304.08,4760.95
1306.63,4701.6
1309.18,4591.5
1311.73,4444.05
1314.28,4331.95
1316.83,4179.15
1319.38,4143.35
1321.92,4073.35
1324.47,4021.85
1327.01,3982.3
1329.55,3960.6
1332.1,3921.65
1334.64,3859.05
1337.18,3813.05
1339.72,3834.75
1342.26,3882.35
1344.8,3864.3
1347.34,3877.5
1349.87,3847.3
1352.41,3839.55
1354.95,3791.0
1357.48,3858.3
1360.01,3862.95
1362.55,3899.1
1365.08,3934.55
1367.61,3974.9
1370.14,3994.7
1372.67,3981.55
1375.2,3968.9
1377.73,3964.1
1380.26,3985.05
1382.78,3940.55
1385.31,3913.65
1387.84,3883.7
1390.36,3890.95
1392.88,3922.45
1395.41,3952.55
1397.93,3994.0
1400.45,4015.1
1402.97,4066.35
1405.49,4183.6
1408.01,4182.15
1410.53,4153.6
1413.05,4177.6
1415.56,4192.95
1418.08,4141.75
1420.59,4045.0
1423.11,3993.25
1425.62,3982.05
1428.14,4026.1
1430.65,4040.15
1433.16,4114.55
1435.67,4140.4
1438.18,4182.85
1440.69,4226.7
1443.2,4262.9
1445.7,4272.2
1448.21,4240.4
1450.72,4227.9
1453.22,4219.0
1455.72,4275.8
1458.23,4274.65
1460.73,4221.95
1463.23,4130.05
1465.73,4106.55
1468.23,4096.35
1470.73,4092.85
1473.23,4083.6
1475.73,4029.4
1478.23,4036.9
1480.72,4033.6
1483.22,3976.4
1485.72,3963.1
1488.21,4000.4
1490.7,4008.75
1493.2,4029.85
1495.69,4017.45
1498.18,4013.0
1500.67,4031.85
1503.16,4022.2
1505.65,4013.25
1508.14,4003.8
1510.62,4024.55
1513.11,4057.05
1515.59,4018.45
1518.08,4009.7
1520.56,4034.55
1523.05,4063.2
1525.53,4084.25
1528.01,4111.6
1530.49,4085.15
1532.97,4035.9
1535.45,4100.7
1537.93,4111.8
1540.41,4095.85
1542.89,4081.9
1545.36,4087.75
1547.84,4108.65
1550.31,4107.8
1552.79,4157.6
1555.26,4174.0
1557.73,4199.15
1560.21,4213.5
1562.68,4164.7
1565.15,4201.45
1567.62,4226.4
1570.09,4244.85
1572.56,4254.5
1575.02,4322.15
1577.49,4284.45
1579.95,4273.35
1582.42,4355.95
1584.88,4382.75
1587.35,4385.65
1589.81,4390.9
1592.27,4477.1
1594.73,4658.1
1597.19,4895.8
1599.65,5252.9
1602.11,5765.45
1604.57,6623.15
1607.03,7755.25
1609.49,9234.45
1611.94,10575.0
1614.4,11003.2
1616.85,10476.7
1619.31,8961.1
1621.76,7150.55
1624.21,5908.75
1626.66,5048.65
1629.11,4741.7
1631.56,4609.9
1634.01,4437.85
1636.46,4323.45
1638.91,4340.15
1641.36,4373.35
1643.8,4370.95
1646.25,4384.9
1648.69,4315.95
1651.14,4341.65
1653.58,4334.0
1656.02,4292.3
1658.46,4303.45
1660.9,4331.8
1663.35,4329.4
1665.78,4340.75
1668.22,4344.55
1670.66,4339.8
1673.1,4362.65
1675.54,4377.1
1677.97,4432.15
1680.41,4407.35
1682.84,4400.25
1685.27,4411.35
1687.71,4451.1
1690.14,4509.85
1692.57,4514.05
1695.0,4549.95
1697.43,4528.65
1699.86,4607.05
1702.29,4639.95
1704.71,4813.65
1707.14,5067.45
1709.57,5409.6
1711.99,5896.4
1714.42,6440.8
1716.84,6970.8
1719.26,7583.95
1721.69,7937.4
1724.11,8029.75
1726.53,8154.45
1728.95,8163.35
1731.37,8031.55
1733.79,7633.3
1736.21,7233.75
1738.62,6815.95
1741.04,6208.3
1743.46,5828.1
1745.87,5506.8
1748.28,5180.95
1750.7,4996.4
1753.11,4816.65
1755.52,4719.95
1757.93,4613.2
1760.34,4544.0
1762.75,4598.05
1765.16,4631.65
1767.57,4542.95
1769.98,4533.6
1772.39,4528.85
1774.79,4521.55
1777.2,4518.85
1779.6,4500.8
1782.01,4509.35
1784.41,4525.2
1786.81,4524.0
1789.21,4534.0
1791.62,4540.9
1794.02,4539.3
1796.41,4461.2
1798.81,4481.15
1801.21,4545.75
1803.61,4517.35
1806.01,4481.4
1808.4,4536.05
1810.8,4530.35
1813.19,4466.45
1815.59,4511.1
1817.98,4522.55
1820.37,4519.6
1822.76,4504.65
1825.15,4497.4
1827.54,4489.25
1829.93,4431.15
1832.32,4462.45
1834.71,4534.5
1837.1,4493.55
1839.48,4522.5
1841.87,4519.0
1844.25,4465.55
1846.64,4494.0
1849.02,4482.2
1851.4,4493.85
1853.79,4432.1
1856.17,4477.75
1858.55,4539.2
1860.93,4505.3
1863.31,4526.1
1865.69,4535.75
1868.06,4533.2
1870.44,4506.9
1872.82,4526.1
1875.19,4537.55
1877.57,4574.75
1879.94,4536.5
1882.31,4501.05
1884.69,4527.4
1887.06,4600.6
1889.43,4647.35
1891.8,4567.7
1894.17,4561.55
1896.54,4552.15
1898.91,4575.4
1901.28,4608.25
1903.64,4578.8
1906.01,4567.75
1908.38,4590.05
1910.74,4611.2
1913.1,4624.8
1915.47,4599.85
1917.83,4595.7
1920.19,4574.3
1922.55,4557.8
1924.91,4535.25
1927.27,4530.5
1929.63,4597.9
1931.99,4639.75
1934.35,4590.3
1936.71,4537.85
1939.06,4583.85
1941.42,4587.1
1943.77,4571.85
1946.13,4645.95
1948.48,4669.3
1950.83,4617.85
1953.19,4601.2
1955.54,4597.1
1957.89,4600.3
1960.24,4592.25
1962.59,4614.15
1964.93,4656.3
1967.28,4665.1
1969.63,4598.35
1971.98,4505.5
1974.32,4580.05
1976.67,4693.6
1979.01,4676.85
1981.35,4647.2
1983.7,4645.75
1986.04,4631.95
1988.38,4673.7
1990.72,4674.25
1993.06,4587.55
1995.4,4664.7
1997.74,4690.95
2000.08,4711.3
2002.41,4739.15
2004.75,4695.45
2007.09,4682.75
2009.42,4629.4
2011.75,4631.8
2014.09,4670.05
2016.42,4674.4
2018.75,4674.5
2021.08,4674.95
2023.42,4756.4
2025.75,4764.45
2028.08,4719.5
2030.4,4676.75
2032.73,4751.25
2035.06,4727.75
2037.39,4707.55
2039.71,4710.45
2042.04,4692.4
2044.36,4707.65
2046.69,4685.75
2049.01,4685.4
2051.33,4772.15
2053.65,4746.4
2055.97,4674.95
2058.29,4705.4
2060.61,4688.0
2062.93,4692.15
2065.25,4705.7
2067.57,4742.8
2069.88,4770.15
2072.2,4772.6
2074.52,4719.2
2076.83,4721.1
2079.15,4738.55
2081.46,4794.6
2083.77,4725.05
2086.08,4735.0
2088.39,4741.15
2090.7,4672.95
2093.01,4674.95
2095.32,4744.5
2097.63,4745.05
2099.94,4771.8
2102.25,4783.35
2104.55,4765.25
2106.86,4722.3
2109.16,4721.35
2111.47,4698.4
2113.77,4760.2
2116.08,4792.35
2118.38,4790.8
2120.68,4822.5
2122.98,4828.45
2125.28,4817.3
2127.58,4826.7
2129.88,4840.4
2132.18,4773.05
2134.47,4718.55
2136.77,4776.1
2139.07,4763.7
2141.36,4793.75
2143.66,4811.55
2145.95,4759.2
2148.24,4743.5
2150.54,4756.0
2152.83,4790.95
2155.12,4873.7
2157.41,4827.7
2159.7,4733.6
2161.99,4711.9
2164.28,4751.2
2166.57,4731.8
2168.85,4805.85
2171.14,4757.0
2173.43,4749.05
2175.71,4761.65
2178.0,4797.1
2180.28,4796.35
2182.56,4792.95
2184.84,4786.0
2187.13,4841.4
2189.41,4861.25
2191.69,4826.65
2193.97,4769.55
2196.25,4718.2
2198.52,4722.95
2200.8,4871.5
2203.08,4898.5
2205.36,4837.75
2207.63,4844.25
2209.91,4870.75
2212.18,4782.1
2214.45,4776.35
2216.73,4787.3
2219.0,4808.4
2221.27,4778.85
2223.54,4781.55
2225.81,4829.25
2228.08,4809.9
2230.35,4831.65
2232.62,4797.05
2234.89,4784.5
2237.15,4794.0
2239.42,4843.4
2241.68,4864.95
2243.95,4855.75
2246.21,4840.9
2248.48,4913.35
2250.74,4863.25
2253.0,4799.9
2255.26,4842.25
2257.52,4795.25
2259.78,4850.3
2262.04,4789.35
2264.3,4785.6
2266.56,4815.85
2268.82,4826.65
2271.07,4768.4
2273.33,4758.0
2275.58,4802.0
2277.84,4808.65
2280.09,4761.7
2282.35,4797.0
2284.6,4811.65
2286.85,4790.95
2289.1,4802.15
2291.35,4868.95
2293.6,4917.5
2295.85,4833.45
2298.1,4757.0
2300.35,4789.45
2302.6,4826.85
2304.84,4860.95
2307.09,4796.0
2309.33,4780.3
2311.58,4774.2
2313.82,4785.15
2316.07,4824.7
2318.31,4931.95
2320.55,4925.9
2322.79,4883.1
2325.03,4851.1
2327.27,4836.7
2329.51,4834.25
2331.75,4872.1
2333.99,4847.15
2336.23,4792.05
2338.46,4819.0
2340.7,4867.1
2342.93,4776.95
2345.17,4795.85
2347.4,4791.45
2349.64,4883.9
2351.87,4887.15
2354.1,4831.6
2356.33,4765.5
2358.56,4767.5
2360.79,4791.25
2363.02,4779.25
2365.25,4846.3
2367.48,4914.15
2369.71,4882.3
2371.93,4824.05
2374.16,4833.45
2376.38,4804.65
2378.61,4836.45
2380.83,4814.55
2383.06,4806.35
2385.28,4868.0
2387.5,4884.95
2389.72,4841.8
2391.94,4820.75
2394.16,4734.9
2396.38,4692.25
2398.6,4786.3
2400.82,4884.55
2403.04,4894.75
2405.26,4873.25
2407.47,4892.15
2409.69,4882.9
2411.9,4822.35
2414.12,4845.25
2416.33,4849.2
2418.54,4843.45
2420.76,4881.65
2422.97,4884.7
2425.18,4845.4
2427.39,4817.2
2429.6,4806.3
2431.81,4825.3
2434.02,4820.2
2436.22,4799.45
2438.43,4818.25
2440.64,4873.25
2442.84,4851.9
2445.05,4893.4
2447.25,4872.15
2449.46,4806.85
2451.66,4798.5
2453.86,4791.85
2456.06,4794.2
2458.27,4850.8
2460.47,4885.05
2462.67,4881.85
2464.87,4842.7
2467.06,4879.0
2469.26,4844.85
2471.46,4855.7
2473.66,4846.05
2475.85,4776.6
2478.05,4774.6
2480.24,4819.85
2482.44,4935.2
2484.63,4899.5
2486.82,4827.2
2489.02,4798.2
2491.21,4765.6
2493.4,4828.4
2495.59,4880.85
2497.78,4893.5
2499.97,4908.95
2502.16,4869.7
2504.34,4863.2
2506.53,4817.45
2508.72,4773.05
2510.9,4842.55
2513.09,4892.3
2515.27,4937.35
2517.46,4836.05
2519.64,4883.5
2521.82,4957.85
2524.0,4973.9
2526.19,4879.0
2528.37,4811.45
2530.55,4877.8
2532.73,4910.7
2534.9,4891.45
2537.08,4820.55
2539.26,4867.0
2541.44,4857.25
2543.61,4880.45
2545.79,4950.8
2547.96,4902.2
2550.14,4881.1
2552.31,4872.1
2554.48,4841.6
2556.66,4846.25
2558.83,4836.6
2561.0,4864.65
2563.17,4913.9
2565.34,4909.85
2567.51,4880.9
2569.68,4878.55
2571.85,4929.1
2574.01,4965.6
2576.18,4894.35
2578.35,4858.45
2580.51,4869.4
2582.68,4887.2
2584.84,4910.2
2587.0,4903.95
2589.17,4885.3
2591.33,4944.8
2593.49,4904.65
2595.65,4910.1
2597.81,4995.05
2599.97,4925.05
2602.13,4896.45
2604.29,4944.35
2606.45,4971.85
2608.6,5018.9
2610.76,4986.8
2612.92,4940.45
2615.07,4992.95
2617.23,4990.25
2619.38,4934.25
2621.53,4907.35
2623.69,4908.95
2625.84,4956.6
2627.99,4985.7
2630.14,4995.6
2632.29,5020.15
2634.44,4966.7
2636.59,4911.05
2638.74,4949.2
2640.89,4958.1
2643.03,4886.85
2645.18,4862.0
2647.33,4888.5
2649.47,4960.6
2651.62,4990.55
2653.76,4991.4
2655.9,4924.0
2658.05,4898.5
2660.19,4909.35
2662.33,4892.1
2664.47,4885.65
2666.61,4909.3
2668.75,4885.65
2670.89,4909.75
2673.03,4957.45
2675.17,4938.9
2677.3,4900.4
2679.44,4912.85
2681.58,4989.5
2683.71,5012.1
2685.84,4913.5
2687.98,4912.35
2690.11,4903.1
2692.25,4945.55
2694.38,4966.85
2696.51,4966.5
2698.64,4947.85
2700.77,4940.6
2702.9,4915.7
2705.03,4924.25
2707.16,4991.15
2709.29,4938.65
2711.41,4905.7
2713.54,4952.55
2715.67,4936.95
2717.79,4946.55
2719.92,4957.2
2722.04,4936.65
2724.16,4957.15
2726.29,4974.9
2728.41,4976.05
2730.53,4929.0
2732.65,4959.25
2734.77,4945.6
2736.89,4952.5
2739.01,4971.55
2741.13,5024.25
2743.25,4994.85
2745.36,4959.75
2747.48,5022.15
2749.6,5031.25
2751.71,5057.3
2753.83,5000.55
2755.94,4986.5
2758.06,5016.8
2760.17,4993.65
2762.28,5016.25
2764.39,5044.7
2766.5,5015.0
2768.61,5009.8
2770.72,5012.7
2772.83,5034.95
2774.94,5088.75
2777.05,5114.65
2779.16,5074.1
2781.27,5061.45
2783.37,5009.75
2785.48,4992.15
2787.58,5057.3
2789.69,5124.8
2791.79,5113.35
2793.89,5100.95
2796.0,5154.25
2798.1,5132.9
2800.2,5104.4
2802.3,5074.15
2804.4,5034.4
2806.5,5063.75
2808.6,5061.2
2810.7,5074.85
2812.8,5041.95
2814.89,5027.6
2816.99,5097.3
2819.09,5122.7
2821.18,5075.3
2823.28,5120.55
2825.37,5103.6
2827.46,5077.7
2829.56,5070.7
2831.65,5045.15
2833.74,5046.45
2835.83,5047.6
2837.92,5055.3
2840.01,5089.7
2842.1,5125.35
2844.19,5158.3
2846.28,5149.95
2848.37,5121.7
2850.45,5099.1
2852.54,5086.35
2854.63,5094.05
2856.71,5127.3
2858.8,5128.7
2860.88,5175.8
2862.96,5156.6
2865.05,5173.2
2867.13,5202.05
2869.21,5205.35
2871.29,5194.35
2873.37,5166.5
2875.45,5292.3
2877.53,5248.35
2879.61,5233.4
2881.69,5332.5
2883.76,5399.35
2885.84,5432.8
2887.92,5374.95
2889.99,5370.0
2892.07,5386.15
2894.14,5438.3
2896.22,5477.7
2898.29,5431.1
2900.36,5403.75
2902.43,5399.85
2904.5,5455.45
2906.58,5487.75
2908.65,5530.9
2910.72,5470.75
2912.78,5378.4
2914.85,5381.6
2916.92,5342.6
2918.99,5419.0
2921.05,5529.35
2923.12,5446.1
2925.19,5366.15
2927.25,5292.5
2929.32,5306.3
2931.38,5268.5
2933.44,5415.35
2935.5,5503.65
2937.57,5517.25
2939.63,5569.9
2941.69,5666.25
2943.75,5831.6
2945.81,5935.25
2947.87,5959.75
2949.93,5952.4
2951.98,6170.8
2954.04,6365.15
2956.1,6475.95
2958.15,6441.5
2960.21,6495.25
2962.26,6644.15
2964.32,6712.45
2966.37,6617.25
2968.42,6481.1
2970.48,6378.5
2972.53,6481.75
2974.58,6416.85
2976.63,6230.15
2978.68,6216.65
2980.73,6106.5
2982.78,5992.65
2984.83,5980.4
2986.87,5964.55
2988.92,5982.7
2990.97,6035.85
2993.01,6041.6
2995.06,5982.8
2997.1,5901.45
2999.15,5982.7
3001.19,6020.3
3003.24,6058.85
3005.28,5952.25
3007.32,5879.65
3009.36,5857.4
3011.4,5834.05
3013.44,5885.2
3015.48,5845.55
3017.52,5827.7
3019.56,5769.65
3021.6,5650.4
3023.63,5709.7
3025.67,5832.55
3027.71,5805.8
3029.74,5677.0
3031.78,5657.2
3033.81,5677.5
3035.85,5700.25
3037.88,5704.2
3039.91,5689.2
3041.94,5595.45
3043.97,5620.65
3046.01,5645.45
3048.04,5710.8
3050.07,5708.3
3052.09,5651.85
3054.12,5733.05
3056.15,5808.9
3058.18,5873.2
3060.2,5909.15
3062.23,5925.95
3064.26,5998.75
3066.28,6133.05
3068.31,6366.95
3070.33,6542.4
3072.35,6577.35
