nm,Intensity
526.495,829.5
526.632,829.6
526.768,829.5
526.905,830.0
527.042,829.7
527.179,829.8
527.315,829.0
527.452,827.9
527.589,829.6
527.725,828.3
527.862,829.3
527.999,829.6
528.136,829.2
528.272,829.1
528.409,829.0
528.546,830.3
528.682,829.5
528.819,827.9
528.955,829.3
529.092,829.4
529.229,831.2
529.365,829.6
529.502,829.7
529.639,830.2
529.775,826.8
529.912,829.3
530.048,828.8
530.185,828.3
530.321,828.1
530.458,830.3
530.594,829.2
530.731,829.7
530.867,828.9
531.004,829.3
531.14,830.5
531.277,828.4
531.413,828.3
531.55,828.8
531.686,828.5
531.823,829.4
531.959,829.5
532.096,834.4
532.232,837.3
532.369,830.6
532.505,829.6
532.641,829.7
532.778,828.5
532.914,828.8
533.051,828.8
533.187,830.1
533.323,829.7
533.46,828.9
533.596,831.7
533.732,844.1
533.869,917.4
534.005,1031.0
534.141,1105.5
534.278,1106.0
534.414,1109.7
534.55,1110.0
534.687,1118.3
534.823,1118.1
534.959,1110.9
535.095,1108.8
535.232,1104.6
535.368,1114.4
535.504,1122.9
535.64,1123.5
535.777,1128.3
535.913,1119.0
536.049,1124.4
536.185,1128.3
536.321,1128.9
536.457,1123.8
536.594,1129.9
536.73,1126.0
536.866,1132.2
537.002,1136.0
537.138,1136.9
537.274,1131.1
537.41,1143.1
537.547,1132.1
537.683,1142.6
537.819,1137.5
537.955,1140.6
538.091,1136.7
538.227,1147.4
538.363,1151.9
538.499,1145.7
538.635,1154.3
538.771,1145.9
538.907,1154.3
539.043,1141.0
539.179,1152.9
539.315,1150.0
539.451,1157.5
539.587,1159.6
539.723,1153.8
539.859,1163.5
539.995,1156.9
540.131,1158.1
540.267,1166.4
540.403,1164.4
540.539,1164.1
540.675,1165.5
540.811,1162.8
540.947,1166.0
541.083,1173.5
541.219,1168.7
541.354,1171.4
541.49,1175.9
541.626,1182.9
541.762,1178.7
541.898,1181.4
542.034,1180.0
542.17,1177.5
542.305,1188.7
542.441,1180.8
542.577,1189.8
542.713,1186.7
542.849,1182.3
542.984,1194.8
543.12,1189.9
543.256,1185.6
543.392,1195.0
543.528,1203.1
543.663,1202.1
543.799,1197.7
543.935,1207.8
544.071,1203.3
544.206,1199.5
544.342,1205.9
544.478,1206.7
544.613,1216.5
544.749,1216.2
544.885,1209.9
545.02,1213.0
545.156,1210.9
545.292,1219.0
545.427,1225.3
545.563,1214.5
545.699,1228.2
545.834,1226.8
545.97,1229.4
546.106,1222.0
546.241,1220.1
546.377,1221.7
546.512,1228.8
546.648,1226.6
546.784,1236.1
546.919,1231.4
547.055,1227.3
547.19,1229.6
547.326,1231.6
547.461,1242.7
547.597,1245.9
547.732,1231.6
547.868,1238.0
548.003,1235.0
548.139,1236.0
548.274,1242.9
548.41,1237.7
548.545,1242.4
548.681,1248.8
548.816,1253.9
548.952,1254.7
549.087,1256.0
549.223,1258.5
549.358,1261.7
549.494,1271.9
549.629,1256.6
549.764,1256.3
549.9,1263.9
550.035,1266.3
550.171,1265.0
550.306,1257.4
550.441,1261.7
550.577,1262.0
550.712,1270.7
550.847,1262.5
550.983,1261.8
551.118,1271.9
551.253,1268.7
551.389,1270.5
551.524,1273.4
551.659,1278.1
551.795,1278.0
551.93,1287.6
552.065,1286.4
552.201,1291.9
552.336,1287.9
552.471,1285.7
552.606,1280.9
552.742,1281.9
552.877,1290.2
553.012,1298.2
553.147,1293.5
553.283,1289.6
553.418,1301.3
553.553,1296.0
553.688,1300.0
553.823,1293.8
553.959,1296.9
554.094,1298.3
554.229,1301.4
554.364,1303.2
554.499,1305.1
554.634,1304.8
554.769,1301.3
554.905,1304.8
555.04,1299.6
555.175,1306.6
555.31,1310.2
555.445,1300.8
555.58,1299.5
555.715,1305.2
555.85,1298.8
555.985,1304.1
556.121,1310.8
556.256,1311.1
556.391,1304.5
556.526,1321.9
556.661,1312.8
556.796,1321.8
556.931,1316.6
557.066,1321.5
557.201,1319.5
557.336,1325.8
557.471,1318.6
557.606,1326.3
557.741,1328.9
557.876,1338.3
558.011,1322.3
558.146,1324.3
558.281,1329.1
558.416,1332.1
558.551,1324.9
558.685,1336.4
558.82,1326.6
558.955,1333.0
559.09,1334.3
559.225,1329.9
559.36,1329.7
559.495,1345.5
559.63,1340.2
559.765,1342.6
559.9,1349.3
560.034,1347.5
560.169,1351.7
560.304,1347.4
560.439,1354.0
560.574,1355.5
560.709,1357.6
560.843,1358.6
560.978,1360.1
561.113,1357.2
561.248,1360.9
561.383,1356.1
561.517,1365.0
561.652,1359.2
561.787,1356.0
561.922,1363.2
562.057,1366.8
562.191,1371.7
562.326,1368.6
562.461,1374.2
562.596,1381.0
562.73,1385.0
562.865,1378.1
563.0,1387.3
563.134,1388.1
563.269,1392.0
563.404,1387.0
563.539,1401.3
563.673,1394.0
563.808,1398.0
563.943,1392.2
564.077,1400.7
564.212,1395.6
564.346,1410.9
564.481,1399.6
564.616,1405.6
564.75,1414.3
564.885,1397.2
565.02,1408.2
565.154,1426.5
565.289,1409.7
565.423,1424.5
565.558,1417.1
565.693,1423.9
565.827,1418.4
565.962,1426.4
566.096,1422.4
566.231,1427.7
566.365,1427.6
566.5,1418.3
566.634,1424.5
566.769,1428.3
566.903,1432.8
567.038,1423.9
567.172,1434.2
567.307,1429.5
567.441,1428.6
567.576,1433.3
567.71,1440.2
567.845,1443.0
567.979,1439.6
568.114,1438.2
568.248,1432.4
568.383,1444.4
568.517,1446.8
568.652,1459.4
568.786,1451.7
568.92,1455.0
569.055,1461.7
569.189,1465.2
569.324,1468.6
569.458,1470.5
569.592,1461.9
569.727,1477.0
569.861,1472.8
569.996,1478.5
570.13,1482.8
570.264,1468.9
570.399,1473.7
570.533,1470.6
570.667,1472.5
570.802,1477.7
570.936,1487.1
571.07,1483.3
571.205,1482.1
571.339,1480.3
571.473,1480.4
571.607,1489.1
571.742,1487.8
571.876,1493.4
572.01,1484.9
572.144,1497.1
572.279,1509.1
572.413,1498.4
572.547,1506.3
572.681,1513.9
572.816,1510.5
572.95,1520.1
573.084,1513.8
573.218,1519.0
573.353,1524.5
573.487,1515.1
573.621,1520.5
573.755,1526.0
573.889,1523.4
574.023,1524.7
574.158,1525.6
574.292,1528.3
574.426,1528.2
574.56,1529.3
574.694,1529.1
574.828,1527.9
574.963,1544.4
575.097,1525.3
575.231,1526.2
575.365,1540.5
575.499,1536.2
575.633,1538.0
575.767,1535.2
575.901,1537.2
576.035,1534.5
576.169,1531.3
576.303,1532.0
576.438,1542.8
576.572,1540.2
576.706,1535.6
576.84,1539.6
576.974,1543.8
577.108,1551.5
577.242,1549.0
577.376,1544.1
577.51,1555.4
577.644,1553.1
577.778,1548.1
577.912,1547.0
578.046,1539.1
578.18,1554.0
578.314,1558.2
578.448,1551.5
578.582,1558.4
578.716,1552.8
578.85,1564.3
578.984,1554.9
579.117,1548.9
579.251,1571.0
579.385,1548.7
579.519,1574.2
579.653,1630.2
579.787,1573.0
579.921,1571.2
580.055,1561.7
580.189,1564.3
580.323,1568.3
580.456,1571.3
580.59,1576.5
580.724,1569.4
580.858,1568.5
580.992,1572.8
581.126,1564.0
581.26,1569.1
581.393,1570.6
581.527,1562.3
581.661,1566.1
581.795,1570.9
581.929,1573.1
582.063,1566.1
582.196,1556.1
582.33,1558.7
582.464,1570.3
582.598,1573.2
582.731,1581.6
582.865,1560.3
582.999,1563.8
583.133,1566.7
583.267,1561.9
583.4,1562.5
583.534,1550.5
583.668,1566.5
583.801,1554.7
583.935,1566.9
584.069,1556.7
584.203,1555.5
584.336,1558.6
584.47,1561.2
584.604,1555.8
584.737,1553.0
584.871,1550.8
585.005,1545.4
585.138,1543.8
585.272,1550.5
585.406,1553.5
585.539,1559.3
585.673,1561.1
585.807,1551.0
585.94,1558.8
586.074,1563.7
586.208,1559.7
586.341,1566.1
586.475,1558.6
586.608,1556.7
586.742,1566.0
586.876,1573.2
587.009,1566.8
587.143,1561.6
587.276,1565.7
587.41,1571.5
587.543,1581.9
587.677,1562.1
587.811,1558.3
587.944,1565.4
588.078,1565.6
588.211,1570.5
588.345,1561.0
588.478,1575.7
588.612,1573.6
588.745,1566.5
588.879,1570.7
589.012,1552.1
589.146,1567.3
589.279,1563.4
589.413,1555.7
589.546,1570.2
589.68,1556.8
589.813,1562.4
589.947,1570.2
590.08,1571.2
590.214,1570.4
590.347,1582.9
590.48,1581.4
590.614,1580.4
590.747,1574.5
590.881,1581.3
591.014,1580.8
591.148,1592.2
591.281,1583.3
591.414,1579.0
591.548,1593.1
591.681,1583.0
591.815,1594.7
591.948,1583.7
592.081,1586.8
592.215,1589.6
592.348,1588.2
592.481,1588.5
592.615,1580.1
592.748,1589.6
592.881,1588.6
593.015,1579.0
593.148,1589.8
593.281,1592.4
593.415,1586.4
593.548,1576.3
593.681,1578.6
593.815,1592.8
593.948,1584.2
594.081,1579.4
594.215,1587.5
594.348,1591.3
594.481,1594.6
594.614,1598.0
594.748,1597.3
594.881,1594.7
595.014,1609.6
595.147,1605.2
595.281,1602.4
595.414,1603.1
595.547,1608.3
595.68,1607.7
595.814,1606.6
595.947,1606.1
596.08,1601.9
596.213,1607.8
596.347,1596.6
596.48,1604.3
596.613,1613.8
596.746,1602.6
596.879,1605.8
597.012,1605.2
597.146,1600.5
597.279,1605.7
597.412,1597.7
597.545,1610.9
597.678,1614.2
597.811,1608.9
597.945,1612.0
598.078,1617.6
598.211,1610.6
598.344,1611.0
598.477,1625.5
598.61,1623.0
598.743,1618.7
598.876,1623.0
599.009,1620.1
599.143,1623.8
599.276,1618.7
599.409,1626.1
599.542,1618.6
599.675,1629.3
599.808,1626.0
599.941,1631.2
600.074,1617.0
600.207,1623.0
600.34,1628.9
600.473,1619.1
600.606,1618.0
600.739,1619.9
600.872,1624.1
601.005,1624.5
601.138,1609.5
601.271,1612.6
601.404,1623.9
601.537,1605.8
601.67,1620.6
601.803,1613.7
601.936,1619.3
602.069,1608.8
602.202,1616.0
602.335,1629.9
602.468,1621.2
602.601,1618.4
602.734,1623.3
602.867,1629.7
603.0,1620.5
603.133,1617.6
603.266,1627.7
603.399,1635.4
603.532,1628.9
603.665,1634.7
603.798,1626.8
603.931,1631.2
604.064,1628.9
604.196,1626.7
604.329,1623.0
604.462,1633.8
604.595,1623.9
604.728,1610.7
604.861,1626.5
604.994,1620.6
605.127,1620.8
605.259,1612.0
605.392,1609.6
605.525,1609.6
605.658,1612.6
605.791,1608.4
605.924,1606.4
606.057,1603.6
606.189,1605.3
606.322,1607.2
606.455,1601.0
606.588,1603.9
606.721,1606.4
606.853,1601.9
606.986,1604.8
607.119,1605.1
607.252,1616.9
607.385,1606.0
607.517,1603.8
607.65,1623.1
607.783,1614.7
607.916,1613.9
608.049,1626.4
608.181,1609.0
608.314,1616.8
608.447,1626.2
608.58,1616.4
608.712,1624.2
608.845,1627.2
608.978,1630.9
609.111,1631.7
609.243,1609.1
609.376,1619.8
609.509,1620.9
609.641,1635.2
609.774,1617.3
609.907,1623.6
610.039,1633.4
610.172,1621.8
610.305,1628.6
610.438,1616.0
610.57,1614.6
610.703,1621.8
610.836,1621.2
610.968,1623.4
611.101,1618.1
611.234,1612.9
611.366,1624.6
611.499,1626.1
611.631,1626.8
611.764,1614.7
611.897,1618.1
612.029,1616.0
612.162,1626.2
612.295,1638.0
612.427,1638.2
612.56,1634.2
612.692,1635.8
612.825,1628.9
612.958,1639.4
613.09,1632.7
613.223,1644.7
613.355,1639.7
613.488,1647.8
613.621,1651.7
613.753,1651.7
613.886,1639.3
614.018,1654.5
614.151,1638.9
614.283,1638.3
614.416,1638.6
614.548,1639.5
614.681,1645.9
614.814,1646.8
614.946,1648.7
615.079,1655.3
615.211,1650.1
615.344,1640.2
615.476,1632.1
615.609,1637.4
615.741,1642.2
615.874,1638.8
616.006,1645.5
616.139,1644.3
616.271,1641.5
616.404,1647.8
616.536,1635.5
616.669,1644.0
616.801,1645.6
616.933,1646.6
617.066,1652.0
617.198,1639.3
617.331,1652.9
617.463,1649.4
617.596,1646.1
617.728,1647.6
617.861,1646.0
617.993,1649.0
618.125,1639.5
618.258,1639.0
618.39,1639.6
618.523,1638.0
618.655,1646.3
618.788,1638.2
618.92,1639.7
619.052,1644.4
619.185,1648.0
619.317,1637.4
619.45,1635.3
619.582,1648.2
619.714,1638.9
619.847,1644.5
619.979,1638.5
620.111,1649.4
620.244,1633.4
620.376,1633.6
620.509,1639.2
620.641,1640.1
620.773,1633.3
620.906,1634.0
621.038,1632.0
621.17,1642.2
621.303,1644.3
621.435,1639.2
621.567,1646.2
621.7,1634.2
621.832,1632.9
621.964,1638.0
622.096,1641.9
622.229,1637.4
622.361,1647.4
622.493,1651.2
622.626,1661.6
622.758,1638.5
622.89,1645.7
623.022,1640.3
623.155,1643.9
623.287,1645.4
623.419,1652.9
623.552,1639.3
623.684,1647.5
623.816,1650.1
623.948,1661.2
624.081,1655.1
624.213,1653.9
624.345,1649.2
624.477,1649.9
624.61,1654.2
624.742,1645.0
624.874,1642.6
625.006,1633.9
625.138,1644.8
625.271,1651.5
625.403,1643.9
625.535,1656.0
625.667,1644.4
625.799,1644.4
625.932,1636.9
626.064,1641.4
626.196,1647.7
626.328,1633.2
626.46,1638.4
626.593,1636.7
626.725,1639.4
626.857,1632.9
626.989,1635.8
627.121,1638.5
627.253,1628.6
627.386,1632.6
627.518,1633.1
627.65,1637.7
627.782,1627.6
627.914,1628.2
628.046,1637.0
628.178,1638.0
628.311,1627.5
628.443,1632.8
628.575,1633.4
628.707,1632.4
628.839,1629.6
628.971,1633.6
629.103,1638.7
629.235,1633.8
629.367,1630.6
629.5,1631.1
629.632,1639.9
629.764,1628.0
629.896,1630.8
630.028,1636.4
630.16,1633.9
630.292,1632.8
630.424,1644.0
630.556,1638.2
630.688,1638.0
630.82,1638.6
630.952,1643.8
631.084,1628.4
631.216,1624.0
631.349,1621.1
631.481,1629.2
631.613,1623.8
631.745,1623.9
631.877,1640.8
632.009,1640.9
632.141,1639.7
632.273,1612.6
632.405,1619.5
632.537,1620.1
632.669,1620.7
632.801,1624.0
632.933,1618.0
633.065,1610.5
633.197,1618.4
633.329,1614.6
633.461,1615.7
633.593,1604.4
633.725,1615.8
633.857,1613.3
633.989,1607.4
634.121,1618.6
634.253,1610.6
634.385,1612.0
634.517,1610.0
634.649,1603.5
634.781,1618.5
634.912,1604.3
635.044,1606.6
635.176,1598.3
635.308,1608.6
635.44,1616.9
635.572,1607.9
635.704,1610.3
635.836,1605.7
635.968,1605.9
636.1,1595.8
636.232,1598.5
636.364,1594.8
636.496,1596.7
636.628,1596.9
636.76,1600.4
636.891,1609.6
637.023,1603.2
637.155,1602.0
637.287,1594.5
637.419,1589.6
637.551,1602.7
637.683,1596.4
637.815,1592.2
637.947,1599.1
638.078,1601.9
638.21,1595.6
638.342,1591.4
638.474,1600.6
638.606,1589.7
638.738,1593.7
638.87,1594.8
639.002,1594.2
639.133,1587.6
639.265,1582.4
639.397,1574.5
639.529,1588.6
639.661,1579.7
639.793,1585.1
639.924,1577.7
640.056,1589.5
640.188,1588.2
640.32,1588.1
640.452,1568.9
640.584,1580.9
640.715,1576.4
640.847,1581.3
640.979,1572.5
641.111,1579.8
641.243,1581.5
641.374,1575.9
641.506,1580.2
641.638,1576.0
641.77,1580.0
641.902,1571.2
642.033,1582.0
642.165,1578.3
642.297,1569.6
642.429,1573.7
642.561,1568.9
642.692,1569.8
642.824,1562.0
642.956,1561.0
643.088,1559.3
643.219,1549.7
643.351,1551.4
643.483,1547.7
643.615,1551.4
643.746,1551.1
643.878,1545.9
644.01,1537.3
644.142,1541.9
644.273,1544.3
644.405,1541.0
644.537,1540.3
644.669,1542.4
644.8,1537.3
644.932,1534.3
645.064,1531.1
645.195,1528.7
645.327,1532.9
645.459,1518.5
645.591,1517.3
645.722,1523.4
645.854,1528.5
645.986,1522.1
646.117,1528.0
646.249,1524.2
646.381,1519.2
646.512,1526.2
646.644,1523.8
646.776,1523.0
646.908,1525.4
647.039,1514.9
647.171,1527.9
647.303,1520.5
647.434,1523.9
647.566,1523.6
647.698,1513.7
647.829,1518.4
647.961,1513.4
648.093,1524.1
648.224,1511.5
648.356,1511.4
648.488,1513.3
648.619,1505.3
648.751,1506.2
648.883,1502.4
649.014,1501.9
649.146,1501.3
649.277,1496.9
649.409,1502.6
649.541,1501.0
649.672,1497.7
649.804,1506.1
649.936,1502.3
650.067,1497.7
650.199,1490.2
650.33,1505.1
650.462,1491.8
650.594,1496.2
650.725,1491.4
650.857,1491.7
650.988,1499.3
651.12,1480.1
651.252,1481.4
651.383,1498.7
651.515,1484.9
651.646,1489.8
651.778,1485.9
651.91,1494.7
652.041,1494.7
652.173,1493.1
652.304,1493.5
652.436,1490.5
652.568,1488.1
652.699,1486.6
652.831,1490.1
652.962,1495.5
653.094,1480.3
653.225,1484.6
653.357,1486.3
653.489,1486.1
653.62,1478.1
653.752,1484.4
653.883,1490.4
654.015,1489.6
654.146,1482.9
654.278,1481.4
654.409,1473.6
654.541,1479.5
654.672,1484.3
654.804,1481.1
654.935,1477.1
655.067,1477.6
655.199,1473.3
655.33,1471.4
655.462,1477.4
655.593,1478.2
655.725,1473.2
655.856,1472.1
655.988,1472.7
656.119,1467.8
656.251,1468.1
656.382,1480.8
656.514,1472.4
656.645,1471.9
656.777,1478.3
656.908,1476.5
657.04,1467.6
657.171,1472.9
657.303,1475.8
657.434,1468.3
657.566,1478.2
657.697,1464.3
657.829,1458.0
657.96,1467.1
658.092,1469.3
658.223,1475.9
658.355,1467.6
658.486,1464.3
658.617,1467.4
658.749,1472.1
658.88,1468.0
659.012,1467.2
659.143,1473.1
659.275,1472.3
659.406,1477.3
659.538,1469.1
659.669,1473.6
659.801,1465.8
659.932,1467.7
660.064,1468.4
660.195,1460.6
660.326,1461.8
660.458,1460.8
660.589,1457.9
660.721,1455.6
660.852,1447.5
660.984,1453.4
661.115,1452.3
661.246,1453.2
661.378,1442.3
661.509,1450.4
661.641,1445.5
661.772,1448.5
661.904,1446.6
662.035,1441.6
662.166,1441.6
662.298,1438.8
662.429,1434.9
662.561,1440.8
662.692,1440.4
662.823,1440.1
662.955,1438.0
663.086,1439.7
