nm,Intensity
526.547,832.0
526.683,832.5
526.82,831.3
526.957,833.3
527.094,834.1
527.23,832.8
527.367,834.2
527.504,833.7
527.641,833.9
527.777,832.2
527.914,833.5
528.051,832.8
528.188,833.3
528.324,833.1
528.461,832.3
528.598,833.1
528.734,832.4
528.871,834.2
529.008,832.4
529.144,834.1
529.281,833.7
529.417,833.4
529.554,833.4
529.691,833.1
529.827,833.2
529.964,832.0
530.1,832.7
530.237,832.9
530.373,832.9
530.51,833.7
530.647,832.1
530.783,832.6
530.92,833.2
531.056,832.8
531.193,832.8
531.329,833.4
531.466,833.1
531.602,832.2
531.738,833.2
531.875,833.1
532.011,844.0
532.148,877.5
532.284,866.1
532.421,837.7
532.557,832.5
532.693,832.6
532.83,831.6
532.966,832.1
533.103,834.5
533.239,831.2
533.375,833.2
533.512,834.7
533.648,847.7
533.784,950.5
533.921,1331.9
534.057,1786.8
534.193,1921.2
534.33,1887.5
534.466,1812.1
534.602,1747.6
534.738,1692.5
534.875,1621.9
535.011,1516.5
535.147,1434.6
535.283,1361.0
535.42,1309.5
535.556,1269.3
535.692,1226.1
535.828,1198.4
535.964,1167.6
536.101,1150.1
536.237,1136.5
536.373,1124.6
536.509,1119.5
536.645,1113.1
536.781,1109.3
536.917,1101.0
537.054,1097.3
537.19,1096.3
537.326,1087.9
537.462,1091.2
537.598,1090.4
537.734,1089.0
537.87,1087.8
538.006,1089.4
538.142,1094.8
538.278,1097.8
538.414,1099.0
538.55,1098.0
538.686,1097.1
538.822,1081.9
538.958,1072.9
539.094,1057.8
539.23,1043.3
539.366,1038.1
539.502,1034.4
539.638,1035.2
539.774,1026.5
539.91,1024.6
540.046,1023.2
540.182,1022.0
540.318,1019.9
540.454,1019.9
540.59,1014.9
540.726,1017.4
540.862,1014.6
540.997,1009.1
541.133,1010.3
541.269,1012.5
541.405,1003.6
541.541,1011.4
541.677,1001.1
541.812,1001.1
541.948,1000.5
542.084,1002.6
542.22,995.9
542.356,995.8
542.492,998.5
542.627,994.0
542.763,994.4
542.899,995.7
543.035,990.9
543.17,994.5
543.306,996.3
543.442,997.8
543.578,988.6
543.713,997.2
543.849,998.4
543.985,1000.6
544.12,995.7
544.256,984.1
544.392,981.5
544.527,978.8
544.663,977.3
544.799,977.1
544.934,972.8
545.07,972.1
545.206,972.0
545.341,972.0
545.477,969.4
545.612,969.0
545.748,969.6
545.884,964.9
546.019,965.1
546.155,965.3
546.29,960.0
546.426,958.0
546.562,953.3
546.697,951.0
546.833,958.3
546.968,953.0
547.104,955.7
547.239,953.3
547.375,949.5
547.51,950.4
547.646,950.1
547.781,950.8
547.917,950.2
548.052,948.2
548.188,952.2
548.323,944.0
548.458,951.3
548.594,946.8
548.729,946.0
548.865,943.2
549.0,942.7
549.136,941.8
549.271,942.3
549.406,937.8
549.542,938.7
549.677,938.3
549.812,937.8
549.948,937.5
550.083,935.7
550.219,956.7
550.354,991.4
550.489,969.7
550.625,940.7
550.76,937.0
550.895,929.7
551.03,927.1
551.166,927.1
551.301,925.9
551.436,922.7
551.572,921.8
551.707,926.4
551.842,925.9
551.977,922.6
552.113,924.5
552.248,919.6
552.383,918.4
552.518,916.5
552.654,921.5
552.789,918.3
552.924,918.2
553.059,917.0
553.194,919.4
553.329,914.8
553.465,913.2
553.6,915.6
553.735,921.4
553.87,920.8
554.005,927.1
554.14,928.1
554.276,931.5
554.411,934.0
554.546,939.2
554.681,933.5
554.816,934.9
554.951,930.3
555.086,929.9
555.221,927.9
555.356,937.4
555.491,944.7
555.626,951.2
555.761,957.0
555.896,950.2
556.031,932.9
556.167,924.1
556.302,919.9
556.437,917.1
556.572,909.5
556.707,908.1
556.842,908.5
556.977,915.8
557.112,920.4
557.246,916.4
557.381,912.1
557.516,914.5
557.651,908.9
557.786,911.8
557.921,908.2
558.056,908.7
558.191,912.2
558.326,909.2
558.461,906.3
558.596,909.5
558.731,908.9
558.866,909.1
559.0,913.4
559.135,914.5
559.27,911.4
559.405,908.6
559.54,907.4
559.675,904.6
559.81,902.8
559.944,901.3
560.079,903.3
560.214,907.5
560.349,906.2
560.484,903.6
560.618,906.9
560.753,908.8
560.888,906.4
561.023,908.6
561.158,910.6
561.292,912.4
561.427,914.4
561.562,922.7
561.697,940.4
561.831,971.7
561.966,1087.4
562.101,1376.3
562.235,1336.9
562.37,1044.6
562.505,938.6
562.64,923.3
562.774,932.2
562.909,974.6
563.044,1035.8
563.178,1035.6
563.313,980.1
563.448,947.3
563.582,930.3
563.717,922.5
563.852,925.5
563.986,926.3
564.121,925.2
564.255,928.4
564.39,929.2
564.525,926.6
564.659,928.9
564.794,929.2
564.928,927.9
565.063,924.9
565.198,929.3
565.332,925.8
565.467,923.5
565.601,920.4
565.736,915.9
565.87,919.1
566.005,915.6
566.139,916.8
566.274,914.9
566.408,917.3
566.543,918.9
566.677,925.2
566.812,939.1
566.946,959.2
567.081,974.3
567.215,958.5
567.35,943.2
567.484,938.3
567.619,948.0
567.753,969.2
567.887,995.2
568.022,996.3
568.156,992.5
568.291,1003.4
568.425,1005.2
568.56,1005.8
568.694,994.9
568.828,970.2
568.963,961.9
569.097,953.2
569.231,950.5
569.366,947.6
569.5,942.2
569.635,939.1
569.769,946.4
569.903,942.0
570.038,940.9
570.172,938.4
570.306,945.4
570.441,945.2
570.575,940.7
570.709,939.8
570.843,941.6
570.978,945.6
571.112,943.5
571.246,946.5
571.381,948.2
571.515,948.9
571.649,950.8
571.783,954.6
571.918,954.0
572.052,955.7
572.186,960.6
572.32,967.8
572.455,970.1
572.589,970.4
572.723,968.5
572.857,971.2
572.991,971.9
573.126,965.6
573.26,964.6
573.394,961.3
573.528,962.8
573.662,966.1
573.796,965.3
573.931,967.0
574.065,967.8
574.199,966.2
574.333,964.0
574.467,961.1
574.601,958.1
574.735,952.9
574.869,950.8
575.004,954.9
575.138,956.4
575.272,957.1
575.406,963.2
575.54,960.1
575.674,956.9
575.808,962.5
575.942,964.8
576.076,962.1
576.21,968.1
576.344,978.1
576.478,986.6
576.612,996.1
576.746,997.6
576.88,989.2
577.014,973.1
577.148,962.8
577.282,970.2
577.416,962.2
577.55,963.0
577.684,962.4
577.818,961.0
577.952,965.5
578.086,968.8
578.22,971.0
578.354,964.9
578.488,964.4
578.622,965.6
578.756,964.5
578.89,962.8
579.024,971.7
579.158,966.5
579.292,967.4
579.426,968.5
579.559,965.6
579.693,970.6
579.827,968.1
579.961,969.0
580.095,964.1
580.229,965.3
580.363,969.6
580.497,966.5
580.63,970.8
580.764,971.3
580.898,976.3
581.032,999.6
581.166,1015.7
581.3,1002.5
581.433,995.3
581.567,1013.5
581.701,1075.3
581.835,1107.0
581.969,1061.0
582.102,1003.0
582.236,979.7
582.37,974.2
582.504,968.3
582.637,969.0
582.771,969.5
582.905,964.8
583.039,966.3
583.172,965.5
583.306,961.0
583.44,959.8
583.574,962.1
583.707,963.2
583.841,959.7
583.975,957.8
584.108,958.1
584.242,959.3
584.376,958.4
584.51,962.2
584.643,960.2
584.777,957.3
584.911,959.5
585.044,959.2
585.178,955.7
585.312,958.9
585.445,956.8
585.579,950.8
585.712,953.3
585.846,955.4
585.98,951.6
586.113,953.8
586.247,951.7
586.381,949.2
586.514,952.1
586.648,950.3
586.781,951.1
586.915,957.4
587.048,954.2
587.182,951.5
587.316,950.6
587.449,950.4
587.583,948.7
587.716,947.8
587.85,947.6
587.983,945.9
588.117,948.9
588.25,945.7
588.384,941.9
588.517,945.3
588.651,945.7
588.784,945.6
588.918,948.1
589.051,941.1
589.185,940.9
589.318,941.3
589.452,941.3
589.585,938.9
589.719,937.5
589.852,943.9
589.986,934.8
590.119,939.0
590.253,936.6
590.386,940.6
590.519,930.3
590.653,937.3
590.786,939.8
590.92,935.0
591.053,935.2
591.187,933.5
591.32,932.8
591.453,932.3
591.587,932.4
591.72,936.6
591.853,932.1
591.987,930.7
592.12,929.1
592.254,930.1
592.387,929.1
592.52,929.8
592.654,927.4
592.787,929.9
592.92,929.5
593.054,925.3
593.187,932.3
593.32,928.0
593.454,929.2
593.587,924.3
593.72,926.6
593.853,929.1
593.987,925.0
594.12,926.6
594.253,922.7
594.387,924.1
594.52,919.7
594.653,921.6
594.786,920.9
594.92,921.1
595.053,922.0
595.186,917.5
595.319,922.4
595.453,921.3
595.586,923.5
595.719,915.3
595.852,917.6
595.985,918.1
596.119,922.1
596.252,920.5
596.385,916.1
596.518,919.2
596.651,917.9
596.785,914.1
596.918,918.5
597.051,918.6
597.184,915.5
597.317,914.7
597.45,915.9
597.584,917.4
597.717,916.2
597.85,914.9
597.983,913.3
598.116,914.8
598.249,914.4
598.382,916.9
598.516,916.9
598.649,912.7
598.782,915.1
598.915,916.8
599.048,917.7
599.181,912.5
599.314,910.6
599.447,914.7
599.58,914.5
599.713,912.4
599.846,911.0
599.979,913.9
600.113,914.3
600.246,913.9
600.379,908.7
600.512,907.2
600.645,912.0
600.778,911.2
600.911,910.0
601.044,910.9
601.177,910.0
601.31,909.3
601.443,909.3
601.576,909.6
601.709,911.5
601.842,910.3
601.975,906.7
602.108,908.4
602.241,910.4
602.374,908.5
602.507,907.1
602.64,908.8
602.773,908.8
602.905,908.0
603.038,909.5
603.171,908.1
603.304,907.5
603.437,910.2
603.57,910.7
603.703,906.1
603.836,906.9
603.969,905.9
604.102,907.8
604.235,907.0
604.368,907.7
604.501,908.2
604.633,907.3
604.766,905.6
604.899,906.2
605.032,907.8
605.165,905.0
605.298,906.2
605.431,905.3
605.563,906.5
605.696,904.8
605.829,904.6
605.962,904.5
606.095,903.6
606.228,904.8
606.36,906.5
606.493,907.2
606.626,901.7
606.759,906.9
606.892,904.6
607.025,905.7
607.157,905.8
607.29,906.8
607.423,907.2
607.556,904.4
607.688,908.8
607.821,905.4
607.954,909.2
608.087,908.0
608.219,904.9
608.352,905.4
608.485,906.6
608.618,905.9
608.75,907.5
608.883,904.9
609.016,904.4
609.149,911.5
609.281,908.7
609.414,907.4
609.547,907.9
609.68,909.2
609.812,907.2
609.945,909.8
610.078,904.5
610.21,908.9
610.343,904.5
610.476,911.2
610.608,908.5
610.741,909.0
610.874,907.4
611.006,905.4
611.139,909.5
611.272,907.0
611.404,908.4
611.537,908.6
611.67,910.6
611.802,911.9
611.935,907.5
612.067,912.9
612.2,914.4
612.333,912.5
612.465,909.6
612.598,913.6
612.731,909.7
612.863,911.7
612.996,913.3
613.128,918.0
613.261,917.9
613.393,914.9
613.526,916.1
613.659,912.7
613.791,914.7
613.924,912.4
614.056,916.9
614.189,914.2
614.321,914.3
614.454,912.7
614.586,918.3
614.719,915.8
614.852,915.2
614.984,912.5
615.117,915.4
615.249,914.0
615.382,916.2
615.514,916.9
615.647,918.9
615.779,916.5
615.912,920.4
616.044,922.1
616.177,919.6
616.309,918.2
616.442,918.1
616.574,919.8
616.707,922.0
616.839,919.5
616.971,923.0
617.104,919.9
617.236,926.2
617.369,921.1
617.501,922.9
617.634,928.7
617.766,923.8
617.899,924.8
618.031,928.4
618.163,926.3
618.296,924.7
618.428,923.8
618.561,924.2
618.693,923.1
618.826,925.1
618.958,925.3
619.09,926.1
619.223,927.9
619.355,927.5
619.487,929.6
619.62,928.4
619.752,925.7
619.885,926.7
620.017,927.5
620.149,923.4
620.282,927.5
620.414,928.4
620.546,928.7
620.679,930.4
620.811,928.0
620.943,930.1
621.076,928.3
621.208,925.6
621.34,928.4
621.473,926.6
621.605,927.8
621.737,931.0
621.87,934.0
622.002,929.6
622.134,931.1
622.267,933.3
622.399,931.3
622.531,935.0
622.663,933.2
622.796,931.6
622.928,935.2
623.06,930.7
623.193,934.8
623.325,932.1
623.457,932.4
623.589,934.0
623.722,931.9
623.854,931.0
623.986,933.7
624.118,934.9
624.251,937.8
624.383,933.8
624.515,935.9
624.647,934.0
624.78,939.0
624.912,933.4
625.044,934.6
625.176,933.1
625.308,931.8
625.441,939.0
625.573,940.5
625.705,935.7
625.837,941.7
625.969,941.1
626.102,938.9
626.234,937.6
626.366,939.3
626.498,942.6
626.63,943.6
626.762,950.5
626.895,960.0
627.027,975.1
627.159,992.8
627.291,1002.9
627.423,1011.3
627.555,1008.1
627.687,1002.5
627.82,992.1
627.952,986.7
628.084,982.3
628.216,985.5
628.348,988.8
628.48,1001.1
628.612,1006.5
628.744,1018.6
628.877,1035.3
629.009,1042.9
629.141,1061.9
629.273,1078.1
629.405,1075.7
629.537,1087.9
629.669,1080.0
629.801,1078.5
629.933,1067.7
630.065,1057.9
630.197,1050.2
630.33,1044.7
630.462,1033.0
630.594,1021.9
630.726,1021.1
630.858,1010.7
630.99,1007.0
631.122,985.4
631.254,983.7
631.386,986.2
631.518,977.2
631.65,979.2
631.782,971.7
631.914,976.0
632.046,977.5
632.178,976.1
632.31,989.6
632.442,991.1
632.574,979.2
632.706,973.8
632.838,967.0
632.97,963.4
633.102,971.3
633.234,984.3
633.366,997.0
633.498,988.5
633.63,972.0
633.762,972.3
633.894,966.8
634.026,976.5
634.158,991.2
634.29,1016.5
634.422,1037.7
634.554,1067.2
634.686,1091.6
634.818,1105.5
634.95,1115.5
635.082,1143.8
635.214,1220.5
635.346,1304.6
635.477,1344.4
635.609,1331.0
635.741,1311.5
635.873,1261.5
636.005,1197.3
636.137,1123.9
636.269,1078.2
636.401,1044.2
636.533,1018.0
636.665,1002.1
636.797,996.7
636.929,985.9
637.06,976.6
637.192,975.4
637.324,968.0
637.456,968.9
637.588,971.6
637.72,963.1
637.852,960.0
637.984,962.2
638.115,960.4
638.247,954.7
638.379,954.6
638.511,954.1
638.643,952.7
638.775,955.9
638.907,955.6
639.039,953.2
639.17,955.7
639.302,955.9
639.434,952.2
639.566,954.8
639.698,959.8
639.83,965.4
639.961,965.7
640.093,966.1
640.225,957.7
640.357,953.4
640.489,954.6
640.62,954.5
640.752,953.5
640.884,952.7
641.016,958.8
641.148,957.5
641.279,958.9
641.411,959.9
641.543,960.3
641.675,959.3
641.807,954.3
641.938,955.3
642.07,952.8
642.202,952.6
642.334,950.6
642.466,956.3
642.597,953.4
642.729,949.3
642.861,950.0
642.993,950.8
643.124,946.7
643.256,950.1
643.388,949.4
643.52,950.4
643.651,950.3
643.783,947.6
643.915,945.2
644.047,948.6
644.178,949.8
644.31,944.2
644.442,948.4
644.574,946.9
644.705,950.1
644.837,946.3
644.969,951.2
645.1,951.2
645.232,947.5
645.364,946.1
645.496,947.0
645.627,945.4
645.759,947.4
645.891,948.0
646.022,949.8
646.154,947.8
646.286,947.3
646.417,949.4
646.549,949.2
646.681,946.6
646.812,951.8
646.944,947.6
647.076,950.0
647.207,949.9
647.339,951.1
647.471,948.7
647.602,950.8
647.734,953.4
647.866,949.0
647.997,951.6
648.129,952.2
648.261,947.5
648.392,948.8
648.524,952.1
648.656,946.0
648.787,949.9
648.919,951.0
649.051,951.2
649.182,946.8
649.314,951.6
649.446,948.1
649.577,950.9
649.709,950.9
649.84,949.7
649.972,949.6
650.104,952.8
650.235,948.5
650.367,948.9
650.498,950.3
650.63,948.1
650.762,948.7
650.893,949.5
651.025,946.4
651.157,944.8
651.288,949.0
651.42,953.0
651.551,953.4
651.683,952.7
651.814,953.6
651.946,950.3
652.078,951.3
652.209,948.6
652.341,950.7
652.472,954.2
652.604,947.1
652.736,948.1
652.867,953.0
652.999,954.7
653.13,951.2
653.262,950.8
653.393,953.3
653.525,953.6
653.656,955.7
653.788,955.2
653.92,950.4
654.051,952.3
654.183,952.8
654.314,951.4
654.446,949.8
654.577,955.6
654.709,951.4
654.84,958.6
654.972,951.3
655.103,950.9
655.235,952.7
655.366,951.5
655.498,954.3
655.63,951.1
655.761,951.5
655.893,955.8
656.024,955.2
656.156,955.1
656.287,950.6
656.419,954.7
656.55,949.3
656.682,953.3
656.813,956.9
656.945,952.6
657.076,949.4
657.208,957.3
657.339,953.0
657.471,953.8
657.602,955.9
657.734,956.2
657.865,958.2
657.997,953.0
658.128,948.3
658.26,958.1
658.391,958.4
658.522,954.6
658.654,955.1
658.785,959.6
658.917,954.1
659.048,959.2
659.18,958.7
659.311,956.9
659.443,957.1
659.574,954.0
659.706,955.2
659.837,956.9
659.969,957.9
660.1,956.5
660.232,954.2
660.363,956.8
660.494,959.0
660.626,953.7
660.757,956.6
660.889,954.4
661.02,958.0
661.152,963.3
661.283,956.8
661.415,958.8
661.546,957.9
661.677,956.0
661.809,955.9
661.94,955.7
662.072,955.5
662.203,957.6
662.335,959.4
662.466,955.4
662.597,960.3
662.729,955.5
662.86,960.6
662.992,957.0
663.123,956.9
