nm,Intensity
526.549,831.86
526.686,831.8
526.823,831.34
526.959,831.74
527.096,832.24
527.233,831.9
527.37,832.16
527.506,832.48
527.643,831.86
527.78,831.72
527.917,832.26
528.053,831.68
528.19,831.8
528.327,832.28
528.463,832.26
528.6,832.06
528.737,831.76
528.873,832.0
529.01,831.42
529.147,831.3
529.283,831.98
529.42,831.44
529.556,832.04
529.693,832.18
529.83,832.02
529.966,831.92
530.103,831.54
530.239,832.14
530.376,831.98
530.512,831.48
530.649,832.1
530.785,831.8
530.922,831.58
531.058,831.64
531.195,831.64
531.331,831.64
531.468,831.86
531.604,832.44
531.741,831.5
531.877,832.64
532.014,840.82
532.15,875.06
532.287,867.76
532.423,836.86
532.559,832.18
532.696,831.76
532.832,832.14
532.968,832.0
533.105,831.72
533.241,831.14
533.378,832.16
533.514,832.02
533.65,833.94
533.787,847.92
533.923,901.56
534.059,960.2
534.196,979.6
534.332,976.06
534.468,971.62
534.604,972.04
534.741,975.04
534.877,979.8
535.013,977.84
535.149,985.1
535.286,983.54
535.422,974.72
535.558,963.46
535.694,953.36
535.83,948.9
535.967,946.14
536.103,942.82
536.239,942.58
536.375,942.14
536.511,941.28
536.647,944.7
536.784,950.9
536.92,961.12
537.056,968.34
537.192,971.18
537.328,963.24
537.464,955.2
537.6,947.18
537.736,946.28
537.872,943.14
538.008,941.18
538.145,942.58
538.281,941.12
538.417,940.48
538.553,941.08
538.689,941.28
538.825,941.84
538.961,942.12
539.097,949.14
539.233,958.02
539.369,961.7
539.505,960.42
539.641,956.74
539.777,951.14
539.912,946.3
540.048,945.04
540.184,942.3
540.32,942.08
540.456,942.54
540.592,942.7
540.728,943.08
540.864,944.56
541.0,945.62
541.136,948.92
541.271,953.92
541.407,956.82
541.543,956.02
541.679,952.4
541.815,950.26
541.951,949.34
542.087,947.82
542.222,947.16
542.358,946.96
542.494,947.18
542.63,947.96
542.765,948.9
542.901,948.76
543.037,950.28
543.173,953.6
543.308,955.5
543.444,967.14
543.58,1001.44
543.716,1041.56
543.851,1020.38
543.987,982.7
544.123,965.54
544.258,960.94
544.394,958.24
544.53,954.78
544.665,955.02
544.801,958.16
544.937,960.16
545.072,967.06
545.208,979.26
545.344,994.1
545.479,991.98
545.615,981.34
545.75,973.06
545.886,965.02
546.022,960.44
546.157,962.4
546.293,960.02
546.428,961.78
546.564,960.0
546.699,961.26
546.835,961.2
546.971,964.12
547.106,964.14
547.242,965.9
547.377,974.44
547.513,985.34
547.648,985.5
547.784,976.96
547.919,969.26
548.054,962.7
548.19,961.36
548.325,960.88
548.461,959.18
548.596,959.44
548.732,959.5
548.867,958.9
549.003,963.36
549.138,961.68
549.273,961.58
549.409,962.06
549.544,963.24
549.679,962.34
549.815,963.48
549.95,964.02
550.086,965.24
550.221,963.38
550.356,965.28
550.492,964.92
550.627,965.36
550.762,969.32
550.898,968.5
551.033,967.72
551.168,969.06
551.303,966.16
551.439,970.42
551.574,970.56
551.709,970.52
551.844,970.16
551.98,971.86
552.115,967.9
552.25,969.62
552.385,969.58
552.521,971.28
552.656,968.02
552.791,970.8
552.926,971.32
553.061,969.18
553.197,970.32
553.332,969.62
553.467,971.24
553.602,969.5
553.737,970.0
553.872,970.98
554.007,973.06
554.143,973.68
554.278,973.1
554.413,973.06
554.548,974.18
554.683,975.94
554.818,978.84
554.953,978.96
555.088,981.54
555.223,982.12
555.358,981.5
555.493,982.94
555.629,991.5
555.764,1000.78
555.899,1034.46
556.034,1155.0
556.169,1241.64
556.304,1115.54
556.439,1030.44
556.574,1014.6
556.709,1012.78
556.844,1018.64
556.979,1037.88
557.114,1071.84
557.248,1055.24
557.383,1015.34
557.518,1000.92
557.653,994.4
557.788,992.66
557.923,989.96
558.058,990.56
558.193,988.78
558.328,984.8
558.463,983.84
558.598,984.04
558.733,986.74
558.867,991.2
559.002,993.44
559.137,988.92
559.272,984.24
559.407,986.92
559.542,987.94
559.677,986.6
559.811,988.06
559.946,993.2
560.081,999.04
560.216,1015.98
560.351,1010.96
560.485,1001.94
560.62,996.64
560.755,999.34
560.89,1002.68
561.024,1026.28
561.159,1090.08
561.294,1132.8
561.429,1066.24
561.563,1013.6
561.698,1000.62
561.833,1002.82
561.968,1011.74
562.102,1018.76
562.237,1007.02
562.372,1001.56
562.506,996.56
562.641,997.0
562.776,997.82
562.91,999.08
563.045,1007.64
563.18,1021.92
563.314,1031.52
563.449,1028.8
563.584,1019.82
563.718,1008.98
563.853,1003.4
563.987,999.88
564.122,998.54
564.257,997.16
564.391,997.56
564.526,998.2
564.66,997.92
564.795,1000.68
564.93,1001.16
565.064,1001.22
565.199,1002.24
565.333,1008.3
565.468,1010.98
565.602,1005.84
565.737,1004.9
565.871,1003.14
566.006,1002.86
566.14,1004.68
566.275,1007.76
566.409,1007.18
566.544,1014.62
566.678,1025.0
566.813,1047.78
566.947,1080.08
567.082,1081.88
567.216,1085.14
567.351,1131.18
567.485,1174.28
567.619,1126.68
567.754,1053.5
567.888,1029.24
568.023,1017.9
568.157,1012.5
568.291,1012.54
568.426,1012.76
568.56,1014.76
568.695,1014.18
568.829,1019.62
568.963,1035.6
569.098,1053.1
569.232,1047.98
569.366,1029.22
569.501,1017.38
569.635,1015.76
569.769,1016.54
569.904,1016.3
570.038,1020.1
570.172,1037.62
570.307,1049.24
570.441,1036.0
570.575,1017.56
570.709,1015.66
570.844,1016.36
570.978,1015.98
571.112,1015.9
571.247,1017.78
571.381,1021.6
571.515,1024.32
571.649,1032.6
571.783,1036.36
571.918,1049.08
572.052,1042.52
572.186,1031.52
572.32,1039.74
572.455,1057.96
572.589,1098.6
572.723,1136.6
572.857,1099.12
572.991,1055.08
573.125,1038.06
573.26,1035.44
573.394,1034.46
573.528,1048.42
573.662,1071.22
573.796,1070.38
573.93,1047.12
574.064,1039.16
574.199,1033.2
574.333,1035.02
574.467,1025.32
574.601,1016.7
574.735,1012.7
574.869,1011.98
575.003,1011.88
575.137,1010.94
575.271,1011.24
575.405,1012.0
575.539,1013.28
575.673,1014.78
575.807,1016.16
575.941,1020.62
576.075,1044.4
576.209,1074.22
576.344,1075.94
576.478,1062.16
576.612,1070.3
576.746,1100.16
576.88,1146.12
577.014,1185.48
577.147,1155.38
577.281,1092.78
577.415,1053.94
577.549,1034.28
577.683,1026.92
577.817,1020.06
577.951,1019.66
578.085,1015.74
578.219,1017.9
578.353,1015.42
578.487,1017.04
578.621,1015.8
578.755,1016.34
578.889,1018.82
579.023,1017.16
579.156,1015.32
579.29,1015.56
579.424,1016.26
579.558,1015.9
579.692,1015.18
579.826,1013.34
579.96,1012.68
580.094,1012.92
580.227,1012.22
580.361,1011.06
580.495,1012.56
580.629,1012.58
580.763,1010.72
580.897,1011.04
581.03,1013.48
581.164,1012.3
581.298,1013.16
581.432,1015.42
581.565,1014.66
581.699,1016.82
581.833,1021.16
581.967,1024.16
582.101,1030.84
582.234,1034.4
582.368,1029.38
582.502,1025.54
582.636,1018.3
582.769,1018.58
582.903,1017.42
583.037,1015.76
583.17,1016.28
583.304,1015.86
583.438,1015.96
583.572,1016.16
583.705,1015.88
583.839,1013.86
583.973,1014.76
584.106,1015.2
584.24,1013.42
584.374,1016.06
584.507,1015.18
584.641,1014.58
584.775,1011.7
584.908,1016.18
585.042,1015.58
585.175,1015.42
585.309,1017.36
585.443,1016.82
585.576,1016.24
585.71,1016.76
585.844,1017.18
585.977,1016.24
586.111,1015.46
586.244,1015.54
586.378,1015.5
586.511,1015.26
586.645,1017.18
586.779,1016.52
586.912,1016.14
587.046,1016.1
587.179,1015.38
587.313,1016.4
587.446,1015.3
587.58,1015.52
587.713,1016.28
587.847,1017.6
587.98,1014.58
588.114,1012.94
588.247,1015.9
588.381,1013.06
588.514,1014.22
588.648,1014.2
588.781,1014.52
588.915,1012.32
589.048,1012.56
589.182,1013.34
589.315,1011.4
589.449,1013.18
589.582,1012.04
589.716,1012.02
589.849,1009.5
589.982,1011.94
590.116,1012.94
590.249,1014.16
590.383,1012.84
590.516,1013.72
590.65,1010.36
590.783,1014.14
590.916,1010.82
591.05,1013.02
591.183,1014.3
591.316,1015.26
591.45,1012.84
591.583,1013.4
591.717,1013.24
591.85,1014.84
591.983,1013.46
592.117,1011.3
592.25,1015.52
592.383,1016.12
592.517,1013.82
592.65,1013.2
592.783,1011.64
592.917,1011.18
593.05,1012.88
593.183,1012.94
593.316,1013.58
593.45,1014.18
593.583,1010.4
593.716,1012.52
593.85,1012.16
593.983,1014.74
594.116,1012.66
594.249,1012.6
594.383,1016.1
594.516,1012.8
594.649,1013.78
594.782,1011.94
594.916,1012.08
595.049,1015.14
595.182,1011.6
595.315,1015.0
595.449,1015.4
595.582,1013.0
595.715,1013.5
595.848,1015.38
595.981,1015.7
596.115,1015.08
596.248,1014.54
596.381,1016.18
596.514,1015.14
596.647,1017.5
596.78,1018.14
596.914,1016.74
597.047,1016.48
597.18,1015.88
597.313,1018.24
597.446,1016.42
597.579,1015.92
597.712,1014.14
597.846,1016.12
597.979,1015.2
598.112,1016.78
598.245,1017.0
598.378,1016.96
598.511,1017.26
598.644,1018.7
598.777,1018.26
598.91,1019.1
599.043,1020.06
599.177,1019.28
599.31,1017.52
599.443,1018.46
599.576,1018.88
599.709,1018.44
599.842,1018.82
599.975,1020.78
600.108,1016.26
600.241,1017.64
600.374,1016.98
600.507,1014.04
600.64,1019.5
600.773,1017.92
600.906,1017.1
601.039,1015.78
601.172,1013.46
601.305,1015.44
601.438,1015.9
601.571,1013.06
601.704,1015.72
601.837,1014.42
601.97,1015.7
602.103,1014.84
602.236,1015.38
602.369,1017.1
602.502,1013.2
602.635,1014.24
602.768,1016.1
602.901,1017.38
603.034,1016.98
603.166,1015.44
603.299,1015.48
603.432,1015.8
603.565,1016.54
603.698,1014.1
603.831,1018.26
603.964,1019.08
604.097,1013.5
604.23,1015.98
604.363,1015.12
604.496,1014.66
604.628,1015.72
604.761,1014.3
604.894,1014.36
605.027,1013.4
605.16,1014.6
605.293,1014.96
605.426,1015.68
605.558,1012.66
605.691,1012.56
605.824,1011.58
605.957,1010.46
606.09,1008.68
606.223,1011.82
606.355,1010.32
606.488,1010.3
606.621,1010.36
606.754,1011.5
606.887,1013.44
607.019,1012.34
607.152,1012.16
607.285,1012.44
607.418,1013.2
607.551,1012.3
607.683,1013.88
607.816,1014.46
607.949,1014.04
608.082,1014.92
608.214,1013.94
608.347,1013.32
608.48,1013.36
608.613,1013.42
608.745,1013.04
608.878,1013.5
609.011,1010.14
609.143,1013.22
609.276,1012.06
609.409,1011.18
609.542,1013.74
609.674,1013.08
609.807,1011.58
609.94,1012.44
610.072,1011.86
610.205,1010.82
610.338,1010.46
610.47,1013.5
610.603,1010.68
610.736,1011.62
610.868,1012.18
611.001,1012.44
611.134,1012.86
611.266,1011.72
611.399,1011.62
611.532,1013.02
611.664,1011.68
611.797,1010.82
611.93,1012.18
612.062,1012.66
612.195,1014.26
612.327,1014.3
612.46,1015.86
612.593,1017.46
612.725,1015.46
612.858,1016.1
612.99,1017.78
613.123,1016.6
613.256,1017.72
613.388,1015.18
613.521,1016.74
613.653,1018.78
613.786,1016.56
613.919,1016.9
614.051,1016.86
614.184,1015.7
614.316,1015.32
614.449,1019.48
614.581,1017.7
614.714,1016.76
614.846,1015.64
614.979,1016.18
615.111,1017.24
615.244,1016.4
615.376,1016.66
615.509,1017.72
615.641,1018.1
615.774,1016.44
615.906,1015.86
616.039,1015.22
616.171,1013.66
616.304,1016.52
616.436,1014.1
616.569,1012.94
616.701,1014.94
616.834,1016.12
616.966,1019.52
617.099,1017.26
617.231,1019.44
617.364,1018.14
617.496,1018.16
617.629,1018.76
617.761,1019.58
617.894,1020.06
618.026,1019.24
618.158,1022.34
618.291,1022.86
618.423,1020.4
618.556,1020.66
618.688,1019.42
618.82,1019.44
618.953,1020.32
619.085,1020.62
619.218,1022.38
619.35,1021.32
619.482,1026.12
619.615,1024.9
619.747,1025.2
619.88,1025.36
620.012,1022.36
620.144,1023.34
620.277,1022.24
620.409,1022.46
620.541,1023.54
620.674,1022.26
620.806,1021.76
620.939,1021.84
621.071,1023.46
621.203,1024.12
621.336,1024.48
621.468,1027.0
621.6,1031.28
621.733,1034.08
621.865,1041.82
621.997,1048.2
622.13,1057.26
622.262,1069.42
622.394,1078.4
622.526,1068.14
622.659,1056.6
622.791,1049.32
622.923,1042.34
623.056,1037.74
623.188,1035.82
623.32,1033.76
623.452,1032.9
623.585,1030.32
623.717,1027.62
623.849,1027.74
623.981,1024.56
624.114,1023.88
624.246,1021.4
624.378,1024.3
624.511,1022.96
624.643,1024.16
624.775,1023.78
624.907,1023.74
625.039,1023.98
625.172,1026.68
625.304,1023.74
625.436,1028.34
625.568,1029.34
625.701,1030.88
625.833,1030.72
625.965,1035.78
626.097,1039.74
626.229,1048.82
626.362,1057.02
626.494,1080.62
626.626,1126.92
626.758,1213.78
626.89,1308.88
627.022,1323.76
627.155,1258.28
627.287,1187.48
627.419,1146.8
627.551,1143.04
627.683,1175.24
627.815,1270.28
627.948,1409.86
628.08,1476.06
628.212,1465.48
628.344,1487.76
628.476,1569.0
628.608,1643.52
628.74,1648.78
628.873,1580.74
629.005,1498.64
629.137,1449.68
629.269,1436.34
629.401,1464.18
629.533,1504.18
629.665,1490.78
629.797,1425.02
629.929,1383.64
630.061,1370.68
630.194,1385.28
630.326,1384.58
630.458,1351.54
630.59,1289.98
630.722,1230.84
630.854,1196.08
630.986,1187.4
631.118,1223.34
631.25,1305.92
631.382,1394.2
631.514,1439.08
631.646,1521.56
631.778,1598.16
631.91,1525.58
632.042,1407.1
632.175,1295.02
632.307,1201.22
632.439,1133.04
632.571,1091.26
632.703,1071.98
632.835,1057.42
632.967,1049.26
633.099,1042.84
633.231,1035.48
633.363,1031.82
633.495,1029.82
633.627,1023.96
633.759,1024.2
633.891,1020.0
634.023,1019.66
634.155,1019.68
634.287,1016.26
634.419,1015.86
634.551,1011.3
634.683,1011.58
634.815,1012.58
634.947,1010.72
635.079,1009.02
635.21,1013.58
635.342,1013.94
635.474,1012.06
635.606,1011.72
635.738,1008.4
635.87,1010.22
636.002,1010.22
636.134,1008.24
636.266,1010.36
636.398,1005.08
636.53,1007.48
636.662,1009.22
636.794,1008.66
636.926,1009.04
637.058,1007.7
637.19,1007.66
637.321,1008.0
637.453,1008.62
637.585,1008.26
637.717,1005.66
637.849,1004.1
637.981,1006.22
638.113,1004.74
638.245,1006.58
638.377,1004.96
638.509,1005.2
638.64,1006.7
638.772,1005.58
638.904,1007.5
639.036,1007.0
639.168,1004.08
639.3,1006.36
639.432,1002.6
639.563,1006.18
639.695,1003.94
639.827,1006.5
639.959,1004.08
640.091,1003.68
640.223,1006.04
640.355,1005.66
640.486,1003.3
640.618,1001.7
640.75,1004.06
640.882,1005.6
641.014,1003.76
641.146,1006.16
641.277,1007.08
641.409,1005.9
641.541,1007.66
641.673,1003.38
641.805,1004.84
641.936,1002.4
642.068,1003.94
642.2,1001.22
642.332,1004.62
642.464,998.52
642.595,1002.04
642.727,1000.92
642.859,1000.38
642.991,997.62
643.123,995.9
643.254,997.24
643.386,995.06
643.518,996.56
643.65,995.4
643.781,994.44
643.913,993.88
644.045,994.36
644.177,992.22
644.309,992.44
644.44,992.94
644.572,993.58
644.704,994.3
644.836,992.58
644.967,992.72
645.099,992.24
645.231,994.66
645.362,992.86
645.494,992.1
645.626,991.52
645.758,992.94
645.889,994.38
646.021,992.92
646.153,990.98
646.285,993.46
646.416,992.9
646.548,991.74
646.68,992.04
646.811,990.3
646.943,992.04
647.075,993.24
647.206,993.46
647.338,992.5
647.47,994.58
647.602,992.64
647.733,991.56
647.865,991.24
647.997,993.22
648.128,991.34
648.26,990.4
648.392,989.6
648.523,990.6
648.655,989.12
648.787,989.04
648.918,988.7
649.05,989.14
649.182,988.28
649.313,988.24
649.445,987.48
649.577,988.5
649.708,987.06
649.84,986.78
649.972,987.26
650.103,987.4
650.235,988.64
650.366,987.9
650.498,988.44
650.63,986.04
650.761,986.42
650.893,985.72
651.025,984.36
651.156,985.0
651.288,985.42
651.419,986.52
651.551,986.24
651.683,986.7
651.814,986.18
651.946,984.58
652.077,985.54
652.209,985.1
652.341,985.9
652.472,986.14
652.604,984.12
652.735,985.74
652.867,984.94
652.999,986.9
653.13,985.82
653.262,984.72
653.393,986.12
653.525,985.34
653.657,984.22
653.788,984.1
653.92,985.7
654.051,987.9
654.183,984.94
654.314,984.72
654.446,985.24
654.578,984.94
654.709,984.54
654.841,984.96
654.972,984.62
655.104,983.36
655.235,983.52
655.367,982.8
655.498,982.24
655.63,983.6
655.762,983.36
655.893,983.16
656.025,984.96
656.156,981.8
656.288,985.98
656.419,984.86
656.551,982.22
656.682,982.5
656.814,982.6
656.945,985.08
657.077,982.52
657.208,983.72
657.34,983.96
657.471,981.9
657.603,984.5
657.734,980.82
657.866,981.5
657.997,984.02
658.129,983.88
658.26,983.28
658.392,982.62
658.523,985.66
658.655,983.52
658.786,983.9
658.918,983.6
659.049,982.56
659.181,982.4
659.312,985.16
659.444,983.4
659.575,983.28
659.707,983.14
659.838,981.08
659.97,981.48
660.101,982.14
660.233,980.44
660.364,981.84
660.496,980.48
660.627,982.78
660.759,982.12
660.89,978.92
661.022,980.48
661.153,979.64
661.285,980.5
661.416,979.92
661.547,980.68
661.679,979.58
661.81,980.48
661.942,979.26
662.073,981.66
662.205,977.46
662.336,978.32
662.468,978.8
662.599,978.94
662.731,980.82
662.862,975.88
662.993,976.74
663.125,978.14
