nm,Intensity
526.532,834.6
526.669,833.1
526.805,834.9
526.942,834.5
527.079,834.0
527.216,834.3
527.352,833.75
527.489,834.35
527.625,832.65
527.762,834.65
527.899,833.7
528.035,834.35
528.172,834.95
528.309,833.7
528.445,835.0
528.582,833.8
528.718,835.6
528.855,834.9
528.992,833.75
529.128,833.4
529.265,834.55
529.401,834.0
529.538,835.1
529.674,834.75
529.811,834.9
529.947,833.4
530.084,834.5
530.22,833.85
530.357,833.85
530.493,834.95
530.63,834.0
530.766,835.15
530.903,834.7
531.039,834.25
531.176,834.45
531.312,834.3
531.449,834.65
531.585,834.15
531.721,834.05
531.858,834.25
531.994,841.65
532.131,873.2
532.267,866.2
532.403,839.75
532.54,835.3
532.676,834.7
532.812,836.15
532.949,835.05
533.085,833.95
533.221,835.2
533.358,835.3
533.494,838.25
533.63,855.85
533.767,1022.5
533.903,1650.4
534.039,2435.3
534.176,2780.9
534.312,2832.0
534.448,2824.75
534.584,2844.75
534.721,2896.0
534.857,2892.75
534.993,2863.15
535.129,2858.6
535.266,2884.55
535.402,2906.0
535.538,2937.75
535.674,2970.75
535.81,2964.35
535.947,2981.7
536.083,2972.95
536.219,2983.0
536.355,2989.95
536.491,2990.8
536.627,2997.4
536.764,2995.5
536.9,3004.85
537.036,3001.1
537.172,3013.0
537.308,3018.7
537.444,3021.1
537.58,3036.35
537.716,3037.9
537.852,3059.8
537.988,3060.45
538.125,3082.8
538.261,3075.95
538.397,3092.3
538.533,3090.65
538.669,3078.05
538.805,3100.2
538.941,3096.0
539.077,3110.1
539.213,3094.85
539.349,3105.65
539.485,3134.25
539.621,3135.15
539.757,3141.4
539.893,3148.4
540.029,3145.05
540.165,3142.45
540.301,3161.05
540.437,3171.1
540.572,3154.35
540.708,3174.85
540.844,3176.05
540.98,3201.3
541.116,3199.45
541.252,3208.35
541.388,3224.95
541.524,3229.05
541.66,3227.85
541.795,3236.55
541.931,3260.85
542.067,3246.55
542.203,3250.9
542.339,3266.0
542.475,3268.85
542.611,3286.7
542.746,3292.65
542.882,3300.15
543.018,3312.0
543.154,3312.5
543.289,3328.85
543.425,3339.5
543.561,3341.9
543.697,3340.85
543.833,3349.25
543.968,3351.9
544.104,3369.8
544.24,3377.7
544.375,3390.1
544.511,3390.65
544.647,3414.3
544.783,3430.4
544.918,3438.7
545.054,3422.1
545.19,3443.45
545.325,3461.45
545.461,3459.35
545.597,3455.9
545.732,3470.1
545.868,3482.85
546.004,3490.05
546.139,3506.6
546.275,3529.6
546.41,3533.1
546.546,3522.5
546.682,3533.65
546.817,3534.95
546.953,3538.9
547.088,3544.05
547.224,3561.95
547.36,3542.8
547.495,3557.4
547.631,3568.95
547.766,3569.3
547.902,3572.3
548.037,3582.05
548.173,3573.2
548.308,3573.6
548.444,3586.9
548.579,3612.0
548.715,3612.75
548.85,3623.75
548.986,3649.0
549.121,3647.9
549.257,3658.15
549.392,3670.55
549.528,3674.55
549.663,3665.05
549.798,3681.05
549.934,3697.55
550.069,3677.8
550.205,3691.4
550.34,3703.25
550.475,3697.9
550.611,3706.3
550.746,3730.7
550.882,3727.5
551.017,3724.55
551.152,3737.4
551.288,3758.2
551.423,3761.3
551.558,3754.1
551.694,3762.65
551.829,3780.65
551.964,3785.75
552.1,3794.2
552.235,3809.8
552.37,3817.1
552.505,3812.4
552.641,3819.45
552.776,3809.75
552.911,3820.55
553.047,3810.2
553.182,3822.35
553.317,3831.6
553.452,3838.2
553.588,3848.65
553.723,3872.25
553.858,3883.7
553.993,3895.25
554.128,3879.75
554.264,3884.85
554.399,3917.35
554.534,3915.0
554.669,3906.8
554.804,3911.5
554.939,3918.75
555.075,3912.75
555.21,3916.8
555.345,3914.35
555.48,3908.65
555.615,3912.65
555.75,3911.95
555.885,3931.85
556.02,3922.6
556.155,3914.15
556.291,3940.85
556.426,3944.35
556.561,3952.4
556.696,3952.1
556.831,3978.25
556.966,3978.15
557.101,3988.3
557.236,3985.2
557.371,3976.4
557.506,4000.6
557.641,3989.15
557.776,4004.65
557.911,3991.85
558.046,3979.5
558.181,3983.7
558.316,3994.0
558.451,4013.85
558.586,3999.8
558.721,3998.5
558.856,4005.45
558.991,4004.65
559.126,4034.25
559.261,4041.4
559.396,4044.6
559.531,4084.75
559.665,4081.4
559.8,4080.1
559.935,4122.25
560.07,4118.95
560.205,4123.85
560.34,4105.5
560.475,4130.6
560.61,4126.6
560.745,4131.1
560.879,4134.1
561.014,4137.4
561.149,4137.25
561.284,4128.25
561.419,4126.3
561.553,4130.2
561.688,4133.05
561.823,4130.25
561.958,4136.15
562.093,4156.8
562.227,4172.4
562.362,4190.1
562.497,4180.15
562.632,4196.8
562.767,4197.7
562.901,4230.35
563.036,4239.55
563.171,4238.55
563.305,4256.95
563.44,4271.7
563.575,4285.75
563.71,4291.4
563.844,4295.25
563.979,4313.45
564.114,4314.4
564.248,4334.95
564.383,4335.3
564.518,4360.2
564.652,4363.2
564.787,4361.45
564.922,4379.55
565.056,4391.35
565.191,4400.55
565.325,4399.6
565.46,4396.75
565.595,4417.6
565.729,4402.35
565.864,4421.8
565.999,4445.8
566.133,4434.8
566.268,4429.45
566.402,4433.3
566.537,4440.8
566.671,4426.85
566.806,4432.25
566.94,4433.15
567.075,4411.4
567.21,4423.55
567.344,4431.15
567.479,4415.15
567.613,4443.65
567.748,4458.9
567.882,4454.25
568.017,4462.95
568.151,4473.5
568.285,4484.35
568.42,4485.75
568.554,4521.75
568.689,4531.0
568.823,4534.9
568.958,4557.15
569.092,4563.85
569.227,4556.95
569.361,4575.55
569.495,4587.5
569.63,4605.25
569.764,4625.15
569.899,4606.75
570.033,4604.0
570.167,4604.85
570.302,4605.05
570.436,4615.6
570.571,4603.7
570.705,4608.95
570.839,4623.75
570.974,4617.7
571.108,4616.7
571.242,4633.2
571.377,4610.65
571.511,4631.05
571.645,4633.9
571.78,4633.5
571.914,4644.05
572.048,4676.0
572.182,4668.75
572.317,4658.5
572.451,4697.05
572.585,4700.25
572.719,4715.4
572.854,4739.1
572.988,4748.9
573.122,4766.15
573.256,4764.15
573.391,4780.25
573.525,4785.4
573.659,4794.8
573.793,4804.0
573.927,4801.1
574.062,4810.55
574.196,4811.75
574.33,4802.9
574.464,4835.65
574.598,4810.1
574.733,4819.7
574.867,4834.85
575.001,4826.7
575.135,4822.25
575.269,4827.45
575.403,4830.4
575.537,4840.5
575.671,4847.7
575.806,4821.5
575.94,4842.8
576.074,4844.95
576.208,4849.8
576.342,4836.45
576.476,4857.0
576.61,4859.35
576.744,4868.5
576.878,4863.8
577.012,4865.75
577.146,4868.7
577.28,4878.55
577.414,4887.05
577.548,4916.85
577.682,4917.8
577.817,4915.65
577.951,4905.5
578.085,4914.7
578.219,4914.2
578.353,4917.75
578.486,4933.55
578.62,4925.3
578.754,4954.5
578.888,4950.45
579.022,4957.6
579.156,4931.15
579.29,4960.6
579.424,4961.0
579.558,4955.1
579.692,4954.25
579.826,4984.65
579.96,4993.05
580.094,4969.5
580.228,4978.8
580.362,4994.6
580.496,4983.55
580.629,5000.45
580.763,5008.55
580.897,5003.75
581.031,5027.7
581.165,5020.2
581.299,5006.4
581.433,5016.85
581.566,5013.9
581.7,5008.0
581.834,5024.05
581.968,5030.75
582.102,5022.9
582.236,5044.45
582.369,5039.25
582.503,5035.65
582.637,5041.1
582.771,5028.1
582.905,5066.9
583.038,5065.5
583.172,5063.05
583.306,5068.45
583.44,5053.6
583.573,5082.35
583.707,5079.0
583.841,5058.4
583.975,5070.25
584.108,5076.45
584.242,5085.95
584.376,5082.2
584.509,5110.6
584.643,5074.55
584.777,5083.15
584.911,5095.55
585.044,5092.2
585.178,5111.6
585.312,5109.9
585.445,5108.25
585.579,5119.1
585.713,5121.45
585.846,5118.1
585.98,5149.25
586.113,5147.3
586.247,5150.1
586.381,5167.35
586.514,5181.7
586.648,5192.55
586.782,5174.9
586.915,5210.05
587.049,5193.65
587.182,5218.5
587.316,5200.2
587.45,5220.55
587.583,5197.65
587.717,5209.1
587.85,5211.35
587.984,5189.3
588.117,5214.8
588.251,5199.0
588.384,5185.5
588.518,5193.35
588.651,5174.45
588.785,5170.8
588.919,5167.6
589.052,5184.85
589.186,5162.95
589.319,5178.2
589.453,5162.2
589.586,5152.9
589.72,5173.6
589.853,5181.65
589.986,5196.8
590.12,5213.5
590.253,5212.8
590.387,5216.95
590.52,5227.1
590.654,5228.7
590.787,5235.45
590.921,5230.55
591.054,5237.6
591.187,5243.3
591.321,5238.85
591.454,5261.6
591.588,5247.95
591.721,5255.35
591.854,5256.2
591.988,5241.05
592.121,5260.1
592.255,5241.35
592.388,5235.4
592.521,5242.45
592.655,5230.1
592.788,5215.8
592.921,5221.4
593.055,5248.35
593.188,5234.6
593.321,5253.3
593.455,5235.45
593.588,5247.95
593.721,5247.25
593.855,5223.8
593.988,5240.75
594.121,5255.15
594.255,5242.5
594.388,5271.75
594.521,5269.25
594.654,5300.95
594.788,5291.85
594.921,5298.9
595.054,5309.4
595.187,5324.7
595.321,5320.15
595.454,5327.15
595.587,5322.3
595.72,5331.6
595.854,5336.5
595.987,5333.25
596.12,5344.65
596.253,5331.6
596.387,5320.45
596.52,5353.6
596.653,5357.6
596.786,5349.2
596.919,5365.5
597.052,5373.7
597.186,5373.0
597.319,5354.4
597.452,5377.3
597.585,5363.4
597.718,5371.95
597.851,5368.95
597.985,5392.95
598.118,5409.7
598.251,5409.4
598.384,5425.5
598.517,5421.75
598.65,5439.25
598.783,5445.45
598.916,5441.45
599.049,5459.45
599.183,5442.75
599.316,5446.85
599.449,5459.2
599.582,5434.1
599.715,5455.3
599.848,5438.4
599.981,5441.4
600.114,5456.75
600.247,5429.35
600.38,5407.6
600.513,5411.7
600.646,5410.65
600.779,5394.2
600.912,5389.1
601.045,5433.35
601.178,5405.45
601.311,5406.85
601.444,5396.25
601.577,5408.15
601.71,5407.15
601.843,5407.8
601.976,5404.4
602.109,5405.75
602.242,5394.5
602.375,5391.6
602.508,5415.35
602.641,5424.95
602.774,5438.45
602.907,5458.6
603.04,5439.05
603.173,5463.4
603.306,5446.45
603.439,5442.25
603.572,5458.7
603.705,5448.55
603.838,5469.8
603.971,5448.25
604.103,5456.25
604.236,5452.5
604.369,5435.7
604.502,5411.2
604.635,5415.7
604.768,5405.65
604.901,5402.0
605.034,5384.75
605.167,5380.15
605.299,5356.45
605.432,5347.75
605.565,5331.5
605.698,5340.7
605.831,5329.0
605.964,5330.15
606.096,5330.75
606.229,5321.05
606.362,5300.1
606.495,5309.55
606.628,5314.8
606.761,5308.7
606.893,5329.9
607.026,5336.75
607.159,5330.9
607.292,5342.1
607.425,5344.65
607.557,5355.65
607.69,5350.55
607.823,5371.8
607.956,5375.1
608.088,5392.95
608.221,5380.85
608.354,5404.95
608.487,5408.4
608.619,5409.95
608.752,5419.85
608.885,5427.6
609.018,5428.45
609.15,5393.4
609.283,5414.55
609.416,5431.4
609.548,5421.45
609.681,5394.85
609.814,5403.3
609.947,5410.55
610.079,5398.1
610.212,5401.55
610.345,5400.3
610.477,5394.55
610.61,5365.9
610.743,5413.3
610.875,5387.05
611.008,5397.9
611.141,5396.8
611.273,5403.65
611.406,5416.9
611.539,5426.4
611.671,5429.1
611.804,5426.2
611.936,5444.75
612.069,5446.6
612.202,5470.75
612.334,5464.6
612.467,5488.6
612.6,5499.55
612.732,5507.55
612.865,5545.5
612.997,5555.2
613.13,5559.8
613.263,5573.5
613.395,5575.2
613.528,5580.55
613.66,5602.85
613.793,5601.1
613.925,5606.9
614.058,5578.9
614.19,5601.15
614.323,5610.0
614.456,5600.25
614.588,5596.4
614.721,5583.6
614.853,5604.55
614.986,5593.55
615.118,5564.75
615.251,5575.95
615.383,5570.2
615.516,5564.05
615.648,5563.1
615.781,5574.3
615.913,5573.95
616.046,5566.5
616.178,5550.15
616.311,5562.8
616.443,5583.25
616.576,5559.5
616.708,5567.6
616.841,5567.65
616.973,5581.25
617.106,5589.0
617.238,5608.95
617.37,5613.2
617.503,5612.0
617.635,5609.55
617.768,5622.0
617.9,5611.75
618.033,5624.65
618.165,5638.95
618.297,5619.2
618.43,5619.2
618.562,5621.75
618.695,5625.65
618.827,5612.95
618.96,5640.5
619.092,5629.5
619.224,5598.15
619.357,5616.95
619.489,5622.45
619.621,5599.05
619.754,5621.65
619.886,5612.6
620.019,5626.9
620.151,5598.0
620.283,5628.5
620.416,5610.7
620.548,5603.35
620.68,5608.15
620.813,5583.25
620.945,5584.8
621.077,5599.2
621.21,5594.25
621.342,5599.8
621.474,5589.5
621.607,5599.65
621.739,5597.4
621.871,5625.65
622.004,5607.95
622.136,5626.3
622.268,5621.75
622.401,5623.85
622.533,5654.15
622.665,5637.1
622.797,5668.0
622.93,5668.3
623.062,5662.4
623.194,5670.9
623.326,5661.25
623.459,5670.8
623.591,5666.95
623.723,5675.85
623.856,5679.75
623.988,5675.5
624.12,5695.65
624.252,5704.05
624.384,5683.0
624.517,5699.0
624.649,5678.75
624.781,5692.2
624.913,5696.0
625.046,5691.6
625.178,5687.0
625.31,5693.7
625.442,5670.6
625.574,5668.8
625.707,5677.6
625.839,5687.8
625.971,5670.5
626.103,5648.7
626.235,5663.35
626.368,5660.65
626.5,5635.45
626.632,5680.55
626.764,5635.15
626.896,5665.6
627.028,5650.55
627.161,5640.45
627.293,5645.5
627.425,5662.5
627.557,5641.3
627.689,5650.9
627.821,5634.8
627.953,5621.75
628.086,5649.9
628.218,5630.65
628.35,5649.3
628.482,5652.5
628.614,5629.2
628.746,5652.05
628.878,5646.7
629.01,5653.85
629.143,5665.85
629.275,5657.9
629.407,5648.65
629.539,5636.3
629.671,5645.55
629.803,5665.9
629.935,5653.8
630.067,5662.65
630.199,5632.25
630.331,5644.2
630.463,5646.4
630.596,5651.1
630.728,5661.25
630.86,5655.1
630.992,5634.6
631.124,5667.25
631.256,5659.3
631.388,5651.6
631.52,5644.25
631.652,5642.3
631.784,5659.2
631.916,5646.25
632.048,5654.05
632.18,5621.15
632.312,5628.35
632.444,5634.9
632.576,5616.55
632.708,5612.95
632.84,5622.35
632.972,5613.25
633.104,5612.75
633.236,5605.15
633.368,5591.2
633.5,5610.6
633.632,5581.95
633.764,5579.7
633.896,5596.95
634.028,5579.8
634.16,5558.0
634.292,5585.2
634.424,5577.4
634.556,5575.85
634.688,5561.55
634.82,5563.95
634.952,5566.6
635.084,5575.55
635.216,5582.35
635.348,5561.55
635.48,5569.55
635.612,5605.0
635.744,5601.4
635.876,5588.45
636.007,5592.05
636.139,5595.85
636.271,5606.1
636.403,5580.85
636.535,5599.35
636.667,5586.75
636.799,5597.35
636.931,5585.15
637.063,5594.4
637.195,5587.75
637.327,5585.2
637.459,5580.95
637.59,5580.2
637.722,5594.3
637.854,5585.2
637.986,5585.55
638.118,5581.75
638.25,5584.05
638.382,5594.75
638.514,5578.0
638.645,5568.0
638.777,5595.2
638.909,5587.85
639.041,5575.45
639.173,5580.35
639.305,5571.6
639.437,5586.2
639.568,5578.45
639.7,5588.1
639.832,5566.5
639.964,5577.3
640.096,5570.9
640.228,5591.7
640.36,5580.6
640.491,5583.2
640.623,5585.85
640.755,5561.2
640.887,5578.7
641.019,5562.7
641.15,5566.7
641.282,5575.65
641.414,5592.9
641.546,5601.05
641.678,5571.1
641.81,5567.1
641.941,5563.9
642.073,5573.45
642.205,5561.65
642.337,5579.1
642.468,5560.75
642.6,5542.95
642.732,5545.65
642.864,5511.2
642.996,5519.05
643.127,5506.05
643.259,5511.85
643.391,5501.8
643.523,5484.1
643.654,5487.55
643.786,5470.45
643.918,5457.15
644.05,5431.4
644.181,5445.6
644.313,5441.1
644.445,5446.0
644.577,5432.45
644.708,5410.85
644.84,5435.2
644.972,5416.6
645.104,5405.4
645.235,5412.3
645.367,5413.45
645.499,5419.9
645.631,5418.25
645.762,5422.95
645.894,5419.65
646.026,5406.6
646.157,5425.8
646.289,5411.7
646.421,5424.05
646.553,5425.0
646.684,5419.15
646.816,5429.75
646.948,5433.9
647.079,5426.75
647.211,5422.05
647.343,5429.05
647.474,5439.1
647.606,5443.65
647.738,5427.2
647.869,5439.65
648.001,5422.85
648.133,5416.85
648.265,5393.85
648.396,5426.8
648.528,5393.1
648.66,5405.75
648.791,5404.2
648.923,5415.95
649.054,5376.05
649.186,5376.45
649.318,5356.4
649.449,5386.05
649.581,5369.75
649.713,5377.25
649.844,5367.3
649.976,5363.25
650.108,5353.4
650.239,5349.1
650.371,5365.4
650.503,5335.2
650.634,5329.45
650.766,5340.3
650.897,5323.35
651.029,5347.55
651.161,5332.95
651.292,5343.35
651.424,5344.95
651.556,5346.5
651.687,5358.2
651.819,5353.85
651.95,5335.0
652.082,5358.25
652.214,5359.2
652.345,5372.15
652.477,5366.7
652.608,5349.2
652.74,5367.35
652.872,5373.0
653.003,5386.5
653.135,5357.75
653.266,5362.4
653.398,5371.9
653.529,5370.85
653.661,5372.45
653.793,5363.6
653.924,5392.25
654.056,5407.95
654.187,5369.45
654.319,5358.65
654.45,5358.0
654.582,5371.75
654.714,5365.0
654.845,5352.2
654.977,5339.1
655.108,5353.15
655.24,5357.95
655.371,5352.9
655.503,5370.9
655.634,5382.4
655.766,5360.4
655.897,5351.55
656.029,5362.8
656.161,5381.7
656.292,5355.0
656.424,5367.1
656.555,5344.55
656.687,5368.1
656.818,5384.15
656.95,5391.65
657.081,5386.1
657.213,5374.95
657.344,5357.2
657.476,5388.6
657.607,5389.3
657.739,5365.75
657.87,5384.7
658.002,5384.5
658.133,5391.7
658.265,5401.35
658.396,5432.65
658.528,5423.65
658.659,5395.45
658.791,5402.35
658.922,5397.25
659.054,5398.85
659.185,5424.65
659.317,5433.65
659.448,5442.35
659.58,5421.5
659.711,5387.5
659.843,5413.85
659.974,5450.95
660.106,5440.75
660.237,5404.45
660.368,5397.4
660.5,5393.15
660.631,5416.05
660.763,5416.15
660.894,5398.3
661.026,5386.1
661.157,5365.6
661.289,5393.25
661.42,5382.5
661.552,5357.3
661.683,5350.55
661.815,5387.05
661.946,5379.55
662.077,5368.1
662.209,5354.9
662.34,5348.45
662.472,5352.45
662.603,5364.6
662.735,5366.35
662.866,5366.0
662.997,5335.75
663.129,5356.35
