cm-1,A
4000.0,-0.0017
3999.0,-0.0018
3998.0,-0.0018
3997.0,-0.0017
3996.0,-0.0017
3995.0,-0.0017
3994.0,-0.0017
3993.0,-0.0017
3992.0,-0.0017
3991.0,-0.0016
3990.0,-0.0015
3989.0,-0.0015
3988.0,-0.0015
3987.0,-0.0015
3986.0,-0.0015
3985.0,-0.0015
3984.0,-0.0016
3983.0,-0.0017
3982.0,-0.0017
3981.0,-0.0018
3980.0,-0.0018
3979.0,-0.0018
3978.0,-0.0018
3977.0,-0.0018
3976.0,-0.0017
3975.0,-0.0017
3974.0,-0.0018
3973.0,-0.0018
3972.0,-0.0018
3971.0,-0.0018
3970.0,-0.0018
3969.0,-0.0018
3968.0,-0.0018
3967.0,-0.0018
3966.0,-0.0019
3965.0,-0.0019
3964.0,-0.0018
3963.0,-0.0017
3962.0,-0.0017
3961.0,-0.0017
3960.0,-0.0017
3959.0,-0.0018
3958.0,-0.0018
3957.0,-0.0018
3956.0,-0.0019
3955.0,-0.0019
3954.0,-0.0019
3953.0,-0.0019
3952.0,-0.0019
3951.0,-0.0018
3950.0,-0.0017
3949.0,-0.0016
3948.0,-0.0016
3947.0,-0.0017
3946.0,-0.0017
3945.0,-0.0017
3944.0,-0.0018
3943.0,-0.0017
3942.0,-0.0017
3941.0,-0.0017
3940.0,-0.0016
3939.0,-0.0016
3938.0,-0.0016
3937.0,-0.0017
3936.0,-0.0018
3935.0,-0.0018
3934.0,-0.0018
3933.0,-0.0019
3932.0,-0.002
3931.0,-0.0021
3930.0,-0.0021
3929.0,-0.002
3928.0,-0.0019
3927.0,-0.0018
3926.0,-0.0017
3925.0,-0.0017
3924.0,-0.0017
3923.0,-0.0017
3922.0,-0.0017
3921.0,-0.0017
3920.0,-0.0016
3919.0,-0.0016
3918.0,-0.0016
3917.0,-0.0017
3916.0,-0.0017
3915.0,-0.0018
3914.0,-0.0018
3913.0,-0.0017
3912.0,-0.0016
3911.0,-0.0016
3910.0,-0.0016
3909.0,-0.0018
3908.0,-0.0019
3907.0,-0.0021
3906.0,-0.0021
3905.0,-0.0022
3904.0,-0.0022
3903.0,-0.0022
3902.0,-0.0022
3901.0,-0.0022
3900.0,-0.0022
3899.0,-0.0021
3898.0,-0.0021
3897.0,-0.002
3896.0,-0.0019
3895.0,-0.0018
3894.0,-0.0018
3893.0,-0.0018
3892.0,-0.0018
3891.0,-0.002
3890.0,-0.0022
3889.0,-0.0022
3888.0,-0.0022
3887.0,-0.0021
3886.0,-0.0021
3885.0,-0.0021
3884.0,-0.0021
3883.0,-0.0021
3882.0,-0.002
3881.0,-0.002
3880.0,-0.002
3879.0,-0.0021
3878.0,-0.0021
3877.0,-0.0021
3876.0,-0.002
3875.0,-0.002
3874.0,-0.0021
3873.0,-0.0021
3872.0,-0.0021
3871.0,-0.0019
3870.0,-0.0019
3869.0,-0.002
3868.0,-0.0021
3867.0,-0.002
3866.0,-0.0018
3865.0,-0.0018
3864.0,-0.0018
3863.0,-0.0019
3862.0,-0.0019
3861.0,-0.0019
3860.0,-0.0019
3859.0,-0.002
3858.0,-0.0022
3857.0,-0.0024
3856.0,-0.0026
3855.0,-0.0027
3854.0,-0.0026
3853.0,-0.0025
3852.0,-0.0025
3851.0,-0.0023
3850.0,-0.0022
3849.0,-0.0021
3848.0,-0.002
3847.0,-0.002
3846.0,-0.002
3845.0,-0.002
3844.0,-0.002
3843.0,-0.0022
3842.0,-0.0025
3841.0,-0.0027
3840.0,-0.0028
3839.0,-0.0028
3838.0,-0.0027
3837.0,-0.0026
3836.0,-0.0025
3835.0,-0.0025
3834.0,-0.0024
3833.0,-0.0022
3832.0,-0.0021
3831.0,-0.0021
3830.0,-0.0021
3829.0,-0.002
3828.0,-0.002
3827.0,-0.002
3826.0,-0.0021
3825.0,-0.0022
3824.0,-0.0022
3823.0,-0.0022
3822.0,-0.0022
3821.0,-0.0024
3820.0,-0.0026
3819.0,-0.0026
3818.0,-0.0024
3817.0,-0.0023
3816.0,-0.0022
3815.0,-0.0023
3814.0,-0.0023
3813.0,-0.0022
3812.0,-0.0021
3811.0,-0.002
3810.0,-0.002
3809.0,-0.002
3808.0,-0.0021
3807.0,-0.0022
3806.0,-0.0024
3805.0,-0.0025
3804.0,-0.0024
3803.0,-0.0023
3802.0,-0.0021
3801.0,-0.0022
3800.0,-0.0023
3799.0,-0.0022
3798.0,-0.0021
3797.0,-0.002
3796.0,-0.0019
3795.0,-0.0019
3794.0,-0.0018
3793.0,-0.0018
3792.0,-0.0018
3791.0,-0.0018
3790.0,-0.0019
3789.0,-0.0018
3788.0,-0.0018
3787.0,-0.0017
3786.0,-0.0017
3785.0,-0.0018
3784.0,-0.0019
3783.0,-0.0019
3782.0,-0.0018
3781.0,-0.0018
3780.0,-0.0019
3779.0,-0.002
3778.0,-0.0021
3777.0,-0.0021
3776.0,-0.0021
3775.0,-0.002
3774.0,-0.0021
3773.0,-0.0021
3772.0,-0.0021
3771.0,-0.002
3770.0,-0.002
3769.0,-0.0021
3768.0,-0.0022
3767.0,-0.0022
3766.0,-0.0022
3765.0,-0.0022
3764.0,-0.0023
3763.0,-0.0022
3762.0,-0.0021
3761.0,-0.002
3760.0,-0.0019
3759.0,-0.0019
3758.0,-0.002
3757.0,-0.0021
3756.0,-0.0022
3755.0,-0.0024
3754.0,-0.0025
3753.0,-0.0028
3752.0,-0.003
3751.0,-0.003
3750.0,-0.003
3749.0,-0.003
3748.0,-0.003
3747.0,-0.0029
3746.0,-0.0026
3745.0,-0.0026
3744.0,-0.0027
3743.0,-0.0028
3742.0,-0.0027
3741.0,-0.0025
3740.0,-0.0024
3739.0,-0.0025
3738.0,-0.0027
3737.0,-0.0029
3736.0,-0.0029
3735.0,-0.0028
3734.0,-0.0027
3733.0,-0.0025
3732.0,-0.0024
3731.0,-0.0023
3730.0,-0.0023
3729.0,-0.0022
3728.0,-0.0022
3727.0,-0.0022
3726.0,-0.0022
3725.0,-0.0022
3724.0,-0.0021
3723.0,-0.002
3722.0,-0.002
3721.0,-0.0021
3720.0,-0.0021
3719.0,-0.0021
3718.0,-0.0021
3717.0,-0.002
3716.0,-0.002
3715.0,-0.0019
3714.0,-0.0019
3713.0,-0.002
3712.0,-0.0021
3711.0,-0.0022
3710.0,-0.0022
3709.0,-0.0022
3708.0,-0.0021
3707.0,-0.0021
3706.0,-0.0021
3705.0,-0.0022
3704.0,-0.0022
3703.0,-0.0022
3702.0,-0.0021
3701.0,-0.0021
3700.0,-0.0021
3699.0,-0.0021
3698.0,-0.0022
3697.0,-0.0022
3696.0,-0.0023
3695.0,-0.0024
3694.0,-0.0024
3693.0,-0.0024
3692.0,-0.0024
3691.0,-0.0024
3690.0,-0.0024
3689.0,-0.0024
3688.0,-0.0025
3687.0,-0.0026
3686.0,-0.0027
3685.0,-0.0027
3684.0,-0.0027
3683.0,-0.0027
3682.0,-0.0027
3681.0,-0.0026
3680.0,-0.0026
3679.0,-0.0028
3678.0,-0.0029
3677.0,-0.0029
3676.0,-0.0029
3675.0,-0.0031
3674.0,-0.0032
3673.0,-0.0033
3672.0,-0.0033
3671.0,-0.0033
3670.0,-0.0032
3669.0,-0.0031
3668.0,-0.0029
3667.0,-0.0028
3666.0,-0.0026
3665.0,-0.0025
3664.0,-0.0025
3663.0,-0.0025
3662.0,-0.0025
3661.0,-0.0026
3660.0,-0.0027
3659.0,-0.0027
3658.0,-0.0027
3657.0,-0.0027
3656.0,-0.0027
3655.0,-0.0028
3654.0,-0.0028
3653.0,-0.0028
3652.0,-0.0029
3651.0,-0.0029
3650.0,-0.0029
3649.0,-0.0028
3648.0,-0.0027
3647.0,-0.0026
3646.0,-0.0026
3645.0,-0.0026
3644.0,-0.0025
3643.0,-0.0024
3642.0,-0.0023
3641.0,-0.0023
3640.0,-0.0023
3639.0,-0.0023
3638.0,-0.0023
3637.0,-0.0024
3636.0,-0.0023
3635.0,-0.0023
3634.0,-0.0023
3633.0,-0.0023
3632.0,-0.0023
3631.0,-0.0023
3630.0,-0.0023
3629.0,-0.0024
3628.0,-0.0025
3627.0,-0.0025
3626.0,-0.0024
3625.0,-0.0022
3624.0,-0.002
3623.0,-0.0018
3622.0,-0.0017
3621.0,-0.0016
3620.0,-0.0017
3619.0,-0.0018
3618.0,-0.002
3617.0,-0.0021
3616.0,-0.002
3615.0,-0.002
3614.0,-0.0019
3613.0,-0.0019
3612.0,-0.0019
3611.0,-0.0019
3610.0,-0.0019
3609.0,-0.002
3608.0,-0.002
3607.0,-0.002
3606.0,-0.0019
3605.0,-0.0018
3604.0,-0.0018
3603.0,-0.0018
3602.0,-0.0019
3601.0,-0.0019
3600.0,-0.0019
3599.0,-0.0018
3598.0,-0.0018
3597.0,-0.002
3596.0,-0.0021
3595.0,-0.0022
3594.0,-0.0022
3593.0,-0.0022
3592.0,-0.0021
3591.0,-0.0021
3590.0,-0.0021
3589.0,-0.0021
3588.0,-0.002
3587.0,-0.002
3586.0,-0.002
3585.0,-0.002
3584.0,-0.002
3583.0,-0.0019
3582.0,-0.0019
3581.0,-0.002
3580.0,-0.002
3579.0,-0.0019
3578.0,-0.0018
3577.0,-0.0018
3576.0,-0.0018
3575.0,-0.0019
3574.0,-0.002
3573.0,-0.0022
3572.0,-0.0022
3571.0,-0.0022
3570.0,-0.0021
3569.0,-0.002
3568.0,-0.0019
3567.0,-0.0018
3566.0,-0.0018
3565.0,-0.0018
3564.0,-0.0017
3563.0,-0.0017
3562.0,-0.0017
3561.0,-0.0019
3560.0,-0.002
3559.0,-0.0021
3558.0,-0.0022
3557.0,-0.0022
3556.0,-0.0022
3555.0,-0.0021
3554.0,-0.002
3553.0,-0.0019
3552.0,-0.0019
3551.0,-0.0019
3550.0,-0.0019
3549.0,-0.0019
3548.0,-0.0018
3547.0,-0.0017
3546.0,-0.0017
3545.0,-0.0017
3544.0,-0.0018
3543.0,-0.0018
3542.0,-0.0019
3541.0,-0.0019
3540.0,-0.0019
3539.0,-0.0019
3538.0,-0.0019
3537.0,-0.0019
3536.0,-0.0019
3535.0,-0.0019
3534.0,-0.0019
3533.0,-0.0019
3532.0,-0.0019
3531.0,-0.0018
3530.0,-0.0018
3529.0,-0.0018
3528.0,-0.0019
3527.0,-0.002
3526.0,-0.002
3525.0,-0.002
3524.0,-0.0019
3523.0,-0.0019
3522.0,-0.0019
3521.0,-0.0019
3520.0,-0.0019
3519.0,-0.0019
3518.0,-0.0019
3517.0,-0.0018
3516.0,-0.0018
3515.0,-0.0018
3514.0,-0.0018
3513.0,-0.0019
3512.0,-0.0019
3511.0,-0.0019
3510.0,-0.0019
3509.0,-0.0019
3508.0,-0.0019
3507.0,-0.0018
3506.0,-0.0018
3505.0,-0.0017
3504.0,-0.0017
3503.0,-0.0017
3502.0,-0.0017
3501.0,-0.0017
3500.0,-0.0018
3499.0,-0.0018
3498.0,-0.0018
3497.0,-0.0018
3496.0,-0.0018
3495.0,-0.0018
3494.0,-0.0018
3493.0,-0.0017
3492.0,-0.0017
3491.0,-0.0017
3490.0,-0.0018
3489.0,-0.0019
3488.0,-0.0019
3487.0,-0.0019
3486.0,-0.0017
3485.0,-0.0016
3484.0,-0.0015
3483.0,-0.0014
3482.0,-0.0014
3481.0,-0.0015
3480.0,-0.0016
3479.0,-0.0017
3478.0,-0.0018
3477.0,-0.0018
3476.0,-0.0018
3475.0,-0.0018
3474.0,-0.0018
3473.0,-0.0018
3472.0,-0.0018
3471.0,-0.0018
3470.0,-0.0018
3469.0,-0.0018
3468.0,-0.0018
3467.0,-0.0018
3466.0,-0.0017
3465.0,-0.0016
3464.0,-0.0016
3463.0,-0.0015
3462.0,-0.0015
3461.0,-0.0016
3460.0,-0.0017
3459.0,-0.0018
3458.0,-0.0019
3457.0,-0.0019
3456.0,-0.0018
3455.0,-0.0017
3454.0,-0.0017
3453.0,-0.0018
3452.0,-0.0018
3451.0,-0.0019
3450.0,-0.0019
3449.0,-0.0019
3448.0,-0.0019
3447.0,-0.0019
3446.0,-0.0019
3445.0,-0.0019
3444.0,-0.0019
3443.0,-0.0018
3442.0,-0.0017
3441.0,-0.0017
3440.0,-0.0017
3439.0,-0.0018
3438.0,-0.0018
3437.0,-0.0018
3436.0,-0.0018
3435.0,-0.0018
3434.0,-0.0018
3433.0,-0.0018
3432.0,-0.0019
3431.0,-0.0019
3430.0,-0.0018
3429.0,-0.0018
3428.0,-0.0017
3427.0,-0.0016
3426.0,-0.0016
3425.0,-0.0016
3424.0,-0.0017
3423.0,-0.0018
3422.0,-0.0017
3421.0,-0.0016
3420.0,-0.0015
3419.0,-0.0015
3418.0,-0.0015
3417.0,-0.0015
3416.0,-0.0016
3415.0,-0.0016
3414.0,-0.0017
3413.0,-0.0017
3412.0,-0.0018
3411.0,-0.0018
3410.0,-0.0018
3409.0,-0.0018
3408.0,-0.0017
3407.0,-0.0017
3406.0,-0.0017
3405.0,-0.0018
3404.0,-0.0018
3403.0,-0.0019
3402.0,-0.0019
3401.0,-0.0018
3400.0,-0.0018
3399.0,-0.0018
3398.0,-0.0018
3397.0,-0.0018
3396.0,-0.0019
3395.0,-0.0019
3394.0,-0.002
3393.0,-0.0021
3392.0,-0.0021
3391.0,-0.002
3390.0,-0.0019
3389.0,-0.0018
3388.0,-0.0017
3387.0,-0.0016
3386.0,-0.0016
3385.0,-0.0016
3384.0,-0.0017
3383.0,-0.0017
3382.0,-0.0017
3381.0,-0.0016
3380.0,-0.0015
3379.0,-0.0015
3378.0,-0.0015
3377.0,-0.0015
3376.0,-0.0016
3375.0,-0.0016
3374.0,-0.0017
3373.0,-0.0017
3372.0,-0.0017
3371.0,-0.0016
3370.0,-0.0014
3369.0,-0.0013
3368.0,-0.0012
3367.0,-0.0013
3366.0,-0.0013
3365.0,-0.0014
3364.0,-0.0015
3363.0,-0.0015
3362.0,-0.0015
3361.0,-0.0016
3360.0,-0.0017
3359.0,-0.0017
3358.0,-0.0017
3357.0,-0.0017
3356.0,-0.0017
3355.0,-0.0017
3354.0,-0.0018
3353.0,-0.0019
3352.0,-0.0019
3351.0,-0.0019
3350.0,-0.0019
3349.0,-0.0019
3348.0,-0.0019
3347.0,-0.0019
3346.0,-0.0019
3345.0,-0.0019
3344.0,-0.0019
3343.0,-0.0019
3342.0,-0.0019
3341.0,-0.0018
3340.0,-0.0017
3339.0,-0.0017
3338.0,-0.0016
3337.0,-0.0016
3336.0,-0.0015
3335.0,-0.0015
3334.0,-0.0015
3333.0,-0.0015
3332.0,-0.0016
3331.0,-0.0016
3330.0,-0.0017
3329.0,-0.0017
3328.0,-0.0017
3327.0,-0.0017
3326.0,-0.0016
3325.0,-0.0016
3324.0,-0.0016
3323.0,-0.0017
3322.0,-0.0017
3321.0,-0.0016
3320.0,-0.0015
3319.0,-0.0015
3318.0,-0.0014
3317.0,-0.0014
3316.0,-0.0015
3315.0,-0.0016
3314.0,-0.0017
3313.0,-0.0018
3312.0,-0.002
3311.0,-0.002
3310.0,-0.002
3309.0,-0.0018
3308.0,-0.0018
3307.0,-0.0017
3306.0,-0.0017
3305.0,-0.0017
3304.0,-0.0017
3303.0,-0.0016
3302.0,-0.0015
3301.0,-0.0015
3300.0,-0.0015
3299.0,-0.0015
3298.0,-0.0016
3297.0,-0.0016
3296.0,-0.0017
3295.0,-0.0017
3294.0,-0.0017
3293.0,-0.0017
3292.0,-0.0017
3291.0,-0.0016
3290.0,-0.0016
3289.0,-0.0016
3288.0,-0.0016
3287.0,-0.0017
3286.0,-0.0017
3285.0,-0.0017
3284.0,-0.0016
3283.0,-0.0015
3282.0,-0.0015
3281.0,-0.0016
3280.0,-0.0016
3279.0,-0.0017
3278.0,-0.0017
3277.0,-0.0017
3276.0,-0.0017
3275.0,-0.0017
3274.0,-0.0017
3273.0,-0.0017
3272.0,-0.0017
3271.0,-0.0017
3270.0,-0.0017
3269.0,-0.0018
3268.0,-0.0019
3267.0,-0.0019
3266.0,-0.0019
3265.0,-0.0017
3264.0,-0.0016
3263.0,-0.0016
3262.0,-0.0016
3261.0,-0.0016
3260.0,-0.0016
3259.0,-0.0015
3258.0,-0.0014
3257.0,-0.0014
3256.0,-0.0014
3255.0,-0.0014
3254.0,-0.0014
3253.0,-0.0014
3252.0,-0.0014
3251.0,-0.0015
3250.0,-0.0016
3249.0,-0.0017
3248.0,-0.0019
3247.0,-0.0019
3246.0,-0.0018
3245.0,-0.0017
3244.0,-0.0017
3243.0,-0.0017
3242.0,-0.0017
3241.0,-0.0017
3240.0,-0.0016
3239.0,-0.0015
3238.0,-0.0015
3237.0,-0.0015
3236.0,-0.0016
3235.0,-0.0017
3234.0,-0.0017
3233.0,-0.0017
3232.0,-0.0017
3231.0,-0.0017
3230.0,-0.0017
3229.0,-0.0018
3228.0,-0.0018
3227.0,-0.0019
3226.0,-0.0018
3225.0,-0.0018
3224.0,-0.0017
3223.0,-0.0017
3222.0,-0.0017
3221.0,-0.0018
3220.0,-0.0018
3219.0,-0.0018
3218.0,-0.0018
3217.0,-0.0018
3216.0,-0.0018
3215.0,-0.0017
3214.0,-0.0016
3213.0,-0.0016
3212.0,-0.0017
3211.0,-0.0018
3210.0,-0.0019
3209.0,-0.0019
3208.0,-0.0018
3207.0,-0.0017
3206.0,-0.0017
3205.0,-0.0017
3204.0,-0.0017
3203.0,-0.0016
3202.0,-0.0015
3201.0,-0.0014
3200.0,-0.0014
3199.0,-0.0015
3198.0,-0.0016
3197.0,-0.0017
3196.0,-0.0017
3195.0,-0.0017
3194.0,-0.0016
3193.0,-0.0016
3192.0,-0.0016
3191.0,-0.0016
3190.0,-0.0016
3189.0,-0.0015
3188.0,-0.0015
3187.0,-0.0015
3186.0,-0.0014
3185.0,-0.0014
3184.0,-0.0014
3183.0,-0.0014
3182.0,-0.0015
3181.0,-0.0015
3180.0,-0.0016
3179.0,-0.0017
3178.0,-0.0018
3177.0,-0.0018
3176.0,-0.0017
3175.0,-0.0017
3174.0,-0.0016
3173.0,-0.0015
3172.0,-0.0015
3171.0,-0.0014
3170.0,-0.0014
3169.0,-0.0014
3168.0,-0.0015
3167.0,-0.0016
3166.0,-0.0016
3165.0,-0.0017
3164.0,-0.0016
3163.0,-0.0016
3162.0,-0.0016
3161.0,-0.0016
3160.0,-0.0016
3159.0,-0.0016
3158.0,-0.0016
3157.0,-0.0015
3156.0,-0.0014
3155.0,-0.0013
3154.0,-0.0012
3153.0,-0.0012
3152.0,-0.0014
3151.0,-0.0015
3150.0,-0.0016
3149.0,-0.0017
3148.0,-0.0017
3147.0,-0.0017
3146.0,-0.0016
3145.0,-0.0016
3144.0,-0.0015
3143.0,-0.0015
3142.0,-0.0015
3141.0,-0.0016
3140.0,-0.0016
3139.0,-0.0015
3138.0,-0.0015
3137.0,-0.0015
3136.0,-0.0016
3135.0,-0.0017
3134.0,-0.0017
3133.0,-0.0017
3132.0,-0.0017
3131.0,-0.0016
3130.0,-0.0016
3129.0,-0.0015
3128.0,-0.0015
3127.0,-0.0016
3126.0,-0.0016
3125.0,-0.0016
3124.0,-0.0016
3123.0,-0.0016
3122.0,-0.0016
3121.0,-0.0017
3120.0,-0.0018
3119.0,-0.0018
3118.0,-0.0017
3117.0,-0.0016
3116.0,-0.0016
3115.0,-0.0015
3114.0,-0.0015
3113.0,-0.0015
3112.0,-0.0014
3111.0,-0.0014
3110.0,-0.0014
3109.0,-0.0014
3108.0,-0.0014
3107.0,-0.0014
3106.0,-0.0015
3105.0,-0.0015
3104.0,-0.0015
3103.0,-0.0015
3102.0,-0.0015
3101.0,-0.0015
3100.0,-0.0015
3099.0,-0.0015
3098.0,-0.0016
3097.0,-0.0017
3096.0,-0.0018
3095.0,-0.0019
3094.0,-0.002
3093.0,-0.0019
3092.0,-0.0018
3091.0,-0.0016
3090.0,-0.0015
3089.0,-0.0015
3088.0,-0.0015
3087.0,-0.0015
3086.0,-0.0016
3085.0,-0.0016
3084.0,-0.0015
3083.0,-0.0015
3082.0,-0.0014
3081.0,-0.0014
3080.0,-0.0015
3079.0,-0.0015
3078.0,-0.0016
3077.0,-0.0015
3076.0,-0.0015
3075.0,-0.0014
3074.0,-0.0014
3073.0,-0.0014
3072.0,-0.0015
3071.0,-0.0015
3070.0,-0.0015
3069.0,-0.0016
3068.0,-0.0015
3067.0,-0.0015
3066.0,-0.0015
3065.0,-0.0015
3064.0,-0.0015
3063.0,-0.0015
3062.0,-0.0015
3061.0,-0.0015
3060.0,-0.0015
3059.0,-0.0015
3058.0,-0.0015
3057.0,-0.0015
3056.0,-0.0016
3055.0,-0.0016
3054.0,-0.0016
3053.0,-0.0016
3052.0,-0.0015
3051.0,-0.0015
3050.0,-0.0015
3049.0,-0.0016
3048.0,-0.0016
3047.0,-0.0016
3046.0,-0.0017
3045.0,-0.0017
3044.0,-0.0017
3043.0,-0.0017
3042.0,-0.0017
3041.0,-0.0017
3040.0,-0.0018
3039.0,-0.0018
3038.0,-0.0018
3037.0,-0.0018
3036.0,-0.0018
3035.0,-0.0018
3034.0,-0.0018
3033.0,-0.0018
3032.0,-0.0018
3031.0,-0.0018
3030.0,-0.0018
3029.0,-0.0018
3028.0,-0.0018
3027.0,-0.0018
3026.0,-0.0019
3025.0,-0.0019
3024.0,-0.002
3023.0,-0.0021
3022.0,-0.0022
3021.0,-0.0023
3020.0,-0.0024
3019.0,-0.0025
3018.0,-0.0025
3017.0,-0.0026
3016.0,-0.0026
3015.0,-0.0027
3014.0,-0.0028
3013.0,-0.0029
3012.0,-0.0029
3011.0,-0.0029
3010.0,-0.0029
3009.0,-0.003
3008.0,-0.0031
3007.0,-0.0032
3006.0,-0.0033
3005.0,-0.0033
3004.0,-0.0033
3003.0,-0.0033
3002.0,-0.0034
3001.0,-0.0034
3000.0,-0.0035
2999.0,-0.0035
2998.0,-0.0036
2997.0,-0.0036
2996.0,-0.0036
2995.0,-0.0036
2994.0,-0.0036
2993.0,-0.0037
2992.0,-0.004
2991.0,-0.0042
2990.0,-0.0045
2989.0,-0.0046
2988.0,-0.0047
2987.0,-0.0046
2986.0,-0.0044
2985.0,-0.0043
2984.0,-0.0042
2983.0,-0.0041
2982.0,-0.0041
2981.0,-0.004
2980.0,-0.004
2979.0,-0.0041
2978.0,-0.0041
2977.0,-0.0042
2976.0,-0.0043
2975.0,-0.0043
2974.0,-0.0043
2973.0,-0.0043
2972.0,-0.0043
2971.0,-0.0042
2970.0,-0.0041
2969.0,-0.004
2968.0,-0.0039
2967.0,-0.0038
2966.0,-0.0038
2965.0,-0.0038
2964.0,-0.0038
2963.0,-0.0038
2962.0,-0.0039
2961.0,-0.0039
2960.0,-0.0039
2959.0,-0.0038
2958.0,-0.0037
2957.0,-0.0036
2956.0,-0.0035
2955.0,-0.0034
2954.0,-0.0034
2953.0,-0.0034
2952.0,-0.0034
2951.0,-0.0034
2950.0,-0.0033
2949.0,-0.0033
2948.0,-0.0034
2947.0,-0.0034
2946.0,-0.0034
2945.0,-0.0033
2944.0,-0.0033
2943.0,-0.0033
2942.0,-0.0033
2941.0,-0.0033
2940.0,-0.0033
2939.0,-0.0033
2938.0,-0.0033
2937.0,-0.0032
2936.0,-0.0032
2935.0,-0.0032
2934.0,-0.0032
2933.0,-0.0032
2932.0,-0.0032
2931.0,-0.0032
2930.0,-0.0033
2929.0,-0.0034
2928.0,-0.0034
2927.0,-0.0034
2926.0,-0.0033
2925.0,-0.0032
2924.0,-0.0032
2923.0,-0.0031
2922.0,-0.0032
2921.0,-0.0032
2920.0,-0.0032
2919.0,-0.0033
2918.0,-0.0033
2917.0,-0.0033
2916.0,-0.0033
2915.0,-0.0033
2914.0,-0.0033
2913.0,-0.0034
2912.0,-0.0034
2911.0,-0.0034
2910.0,-0.0035
2909.0,-0.0035
2908.0,-0.0035
2907.0,-0.0035
2906.0,-0.0035
2905.0,-0.0035
2904.0,-0.0036
2903.0,-0.0038
2902.0,-0.0039
2901.0,-0.0038
2900.0,-0.0037
2899.0,-0.0036
2898.0,-0.0035
2897.0,-0.0034
2896.0,-0.0034
2895.0,-0.0035
2894.0,-0.0035
2893.0,-0.0034
2892.0,-0.0034
2891.0,-0.0034
2890.0,-0.0033
2889.0,-0.0033
2888.0,-0.0033
2887.0,-0.0033
2886.0,-0.0034
2885.0,-0.0033
2884.0,-0.0033
2883.0,-0.0033
2882.0,-0.0032
2881.0,-0.0032
2880.0,-0.0032
2879.0,-0.0032
2878.0,-0.0032
2877.0,-0.0031
2876.0,-0.003
2875.0,-0.0029
2874.0,-0.0028
2873.0,-0.0028
2872.0,-0.0028
2871.0,-0.0028
2870.0,-0.0028
2869.0,-0.0029
2868.0,-0.0029
2867.0,-0.0028
2866.0,-0.0028
2865.0,-0.0027
2864.0,-0.0027
2863.0,-0.0026
2862.0,-0.0026
2861.0,-0.0025
2860.0,-0.0024
2859.0,-0.0023
2858.0,-0.0023
2857.0,-0.0023
2856.0,-0.0023
2855.0,-0.0022
2854.0,-0.0022
2853.0,-0.0022
2852.0,-0.0021
2851.0,-0.0021
2850.0,-0.002
2849.0,-0.002
2848.0,-0.002
2847.0,-0.0019
2846.0,-0.0019
2845.0,-0.0019
2844.0,-0.0019
2843.0,-0.0019
2842.0,-0.0019
2841.0,-0.002
2840.0,-0.002
2839.0,-0.002
2838.0,-0.0019
2837.0,-0.0018
2836.0,-0.0017
2835.0,-0.0017
2834.0,-0.0017
2833.0,-0.0018
2832.0,-0.0018
2831.0,-0.0018
2830.0,-0.0017
2829.0,-0.0017
2828.0,-0.0016
2827.0,-0.0016
2826.0,-0.0017
2825.0,-0.0017
2824.0,-0.0017
2823.0,-0.0017
2822.0,-0.0017
2821.0,-0.0017
2820.0,-0.0017
2819.0,-0.0017
2818.0,-0.0018
2817.0,-0.0018
2816.0,-0.0017
2815.0,-0.0016
2814.0,-0.0016
2813.0,-0.0016
2812.0,-0.0015
2811.0,-0.0016
2810.0,-0.0016
2809.0,-0.0016
2808.0,-0.0016
2807.0,-0.0017
2806.0,-0.0018
2805.0,-0.0019
2804.0,-0.0019
2803.0,-0.0019
2802.0,-0.0018
2801.0,-0.0017
2800.0,-0.0016
2799.0,-0.0015
2798.0,-0.0015
2797.0,-0.0016
2796.0,-0.0017
2795.0,-0.0017
2794.0,-0.0017
2793.0,-0.0017
2792.0,-0.0017
2791.0,-0.0017
2790.0,-0.0017
2789.0,-0.0018
2788.0,-0.0018
2787.0,-0.0018
2786.0,-0.0017
2785.0,-0.0017
2784.0,-0.0016
2783.0,-0.0016
2782.0,-0.0015
2781.0,-0.0015
2780.0,-0.0015
2779.0,-0.0015
2778.0,-0.0016
2777.0,-0.0016
2776.0,-0.0017
2775.0,-0.0017
2774.0,-0.0017
2773.0,-0.0016
2772.0,-0.0016
2771.0,-0.0016
2770.0,-0.0016
2769.0,-0.0017
2768.0,-0.0018
2767.0,-0.0018
2766.0,-0.0018
2765.0,-0.0017
2764.0,-0.0016
2763.0,-0.0015
2762.0,-0.0015
2761.0,-0.0015
2760.0,-0.0016
2759.0,-0.0015
2758.0,-0.0015
2757.0,-0.0015
2756.0,-0.0015
2755.0,-0.0016
2754.0,-0.0016
2753.0,-0.0016
2752.0,-0.0016
2751.0,-0.0016
2750.0,-0.0016
2749.0,-0.0016
2748.0,-0.0016
2747.0,-0.0016
2746.0,-0.0016
2745.0,-0.0016
2744.0,-0.0016
2743.0,-0.0016
2742.0,-0.0016
2741.0,-0.0016
2740.0,-0.0016
2739.0,-0.0016
2738.0,-0.0016
2737.0,-0.0016
2736.0,-0.0016
2735.0,-0.0016
2734.0,-0.0015
2733.0,-0.0015
2732.0,-0.0015
2731.0,-0.0015
2730.0,-0.0016
2729.0,-0.0017
2728.0,-0.0017
2727.0,-0.0017
2726.0,-0.0017
2725.0,-0.0017
2724.0,-0.0016
2723.0,-0.0015
2722.0,-0.0014
2721.0,-0.0014
2720.0,-0.0015
2719.0,-0.0016
2718.0,-0.0016
2717.0,-0.0016
2716.0,-0.0016
2715.0,-0.0016
2714.0,-0.0016
2713.0,-0.0016
2712.0,-0.0016
2711.0,-0.0015
2710.0,-0.0015
2709.0,-0.0015
2708.0,-0.0014
2707.0,-0.0014
2706.0,-0.0014
2705.0,-0.0014
2704.0,-0.0014
2703.0,-0.0014
2702.0,-0.0014
2701.0,-0.0015
2700.0,-0.0016
2699.0,-0.0016
2698.0,-0.0016
2697.0,-0.0016
2696.0,-0.0017
2695.0,-0.0017
2694.0,-0.0017
2693.0,-0.0017
2692.0,-0.0017
2691.0,-0.0016
2690.0,-0.0016
2689.0,-0.0016
2688.0,-0.0016
2687.0,-0.0016
2686.0,-0.0016
2685.0,-0.0016
2684.0,-0.0016
2683.0,-0.0016
2682.0,-0.0015
2681.0,-0.0015
2680.0,-0.0015
2679.0,-0.0015
2678.0,-0.0014
2677.0,-0.0015
2676.0,-0.0015
2675.0,-0.0016
2674.0,-0.0016
2673.0,-0.0016
2672.0,-0.0016
2671.0,-0.0015
2670.0,-0.0014
2669.0,-0.0014
2668.0,-0.0013
2667.0,-0.0012
2666.0,-0.0012
2665.0,-0.0012
2664.0,-0.0013
2663.0,-0.0015
