nm,Intensity
526.5,830.3
526.637,829.9
526.774,830.1
526.91,831.2
527.047,828.1
527.184,830.4
527.32,829.2
527.457,829.5
527.594,829.0
527.73,829.8
527.867,829.3
528.004,828.9
528.14,829.0
528.277,829.3
528.414,829.3
528.55,829.5
528.687,829.0
528.823,830.0
528.96,829.7
529.096,829.1
529.233,829.8
529.37,829.2
529.506,828.5
529.643,829.3
529.779,830.3
529.916,829.6
530.052,828.5
530.189,829.9
530.325,829.3
530.462,828.2
530.598,829.4
530.735,829.0
530.871,830.7
531.008,831.2
531.144,829.4
531.28,830.2
531.417,829.2
531.553,829.8
531.69,829.0
531.826,829.9
531.962,833.7
532.099,856.7
532.235,867.1
532.372,838.6
532.508,829.9
532.644,830.1
532.781,829.1
532.917,829.1
533.053,830.0
533.19,830.4
533.326,828.1
533.462,830.0
533.599,838.4
533.735,921.7
533.871,1342.6
534.007,2039.8
534.144,2355.9
534.28,2338.7
534.416,2226.8
534.552,2126.1
534.689,2022.5
534.825,1877.0
534.961,1733.0
535.097,1598.1
535.234,1473.3
535.37,1381.5
535.506,1301.4
535.642,1233.6
535.778,1181.0
535.914,1137.2
536.051,1106.2
536.187,1081.7
536.323,1060.2
536.459,1038.6
536.595,1035.6
536.731,1024.7
536.867,1016.8
537.003,1020.0
537.14,1008.3
537.276,1001.5
537.412,999.6
537.548,988.3
537.684,988.3
537.82,992.1
537.956,995.5
538.092,997.3
538.228,1006.7
538.364,1018.1
538.5,1020.1
538.636,1012.9
538.772,997.6
538.908,981.3
539.044,960.9
539.18,939.7
539.316,928.3
539.452,919.8
539.588,919.6
539.724,915.4
539.86,910.8
539.996,912.4
540.132,910.8
540.268,911.6
540.403,905.2
540.539,900.2
540.675,898.8
540.811,897.4
540.947,895.3
541.083,899.0
541.219,894.0
541.355,894.0
541.49,897.7
541.626,897.9
541.762,896.8
541.898,895.7
542.034,896.1
542.17,894.8
542.305,894.4
542.441,892.4
542.577,894.2
542.713,892.5
542.848,893.7
542.984,895.3
543.12,898.7
543.256,903.7
543.391,900.8
543.527,901.1
543.663,902.3
543.799,904.4
543.934,909.8
544.07,905.4
544.206,904.3
544.341,900.9
544.477,895.7
544.613,892.9
544.748,891.2
544.884,890.4
545.02,888.5
545.155,887.1
545.291,884.1
545.427,885.1
545.562,884.3
545.698,880.8
545.833,881.1
545.969,881.2
546.105,879.3
546.24,879.2
546.376,881.3
546.511,877.1
546.647,882.2
546.782,877.6
546.918,879.8
547.053,881.0
547.189,880.6
547.325,877.2
547.46,878.6
547.596,880.4
547.731,883.4
547.867,886.4
548.002,886.7
548.137,883.5
548.273,880.3
548.408,881.9
548.544,882.0
548.679,881.1
548.815,880.6
548.95,880.2
549.086,879.2
549.221,878.7
549.356,877.6
549.492,877.1
549.627,875.5
549.763,876.8
549.898,875.8
550.033,880.7
550.169,899.4
550.304,953.6
550.439,961.9
550.575,904.6
550.71,883.6
550.845,879.4
550.981,872.9
551.116,871.5
551.251,868.6
551.387,871.5
551.522,869.7
551.657,870.6
551.793,868.3
551.928,866.9
552.063,865.5
552.198,867.5
552.334,867.1
552.469,869.3
552.604,868.9
552.739,871.3
552.874,871.3
553.01,869.6
553.145,868.9
553.28,867.6
553.415,866.9
553.55,869.1
553.686,873.5
553.821,880.5
553.956,884.1
554.091,888.2
554.226,893.3
554.361,903.3
554.497,908.8
554.632,906.4
554.767,906.1
554.902,905.0
555.037,900.3
555.172,896.3
555.307,904.6
555.442,918.9
555.577,937.9
555.712,948.2
555.848,938.3
555.983,917.3
556.118,902.3
556.253,888.1
556.388,883.8
556.523,876.5
556.658,875.5
556.793,877.9
556.928,882.8
557.063,888.4
557.198,888.7
557.333,883.1
557.468,878.8
557.603,879.2
557.738,878.3
557.873,875.4
558.008,874.1
558.142,876.8
558.277,875.9
558.412,874.0
558.547,877.7
558.682,873.8
558.817,878.8
558.952,882.6
559.087,886.8
559.222,881.6
559.357,879.6
559.492,874.4
559.626,873.0
559.761,869.8
559.896,871.5
560.031,871.4
560.166,871.4
560.301,874.6
560.435,873.0
560.57,872.6
560.705,873.3
560.84,878.5
560.975,878.2
561.109,878.0
561.244,878.8
561.379,882.7
561.514,897.0
561.649,920.0
561.783,959.4
561.918,1054.1
562.053,1457.8
562.188,1674.0
562.322,1229.3
562.457,961.9
562.592,906.0
562.726,907.8
562.861,959.2
562.996,1052.3
563.131,1098.9
563.265,1027.9
563.4,946.3
563.535,914.3
563.669,900.3
563.804,897.9
563.939,895.8
564.073,896.1
564.208,902.8
564.342,904.7
564.477,906.0
564.612,902.2
564.746,899.0
564.881,897.3
565.015,898.8
565.15,899.2
565.285,896.6
565.419,894.2
565.554,883.5
565.688,882.7
565.823,877.4
565.957,877.9
566.092,874.2
566.227,874.2
566.361,876.5
566.496,879.6
566.63,885.7
566.765,899.4
566.899,922.6
567.034,964.7
567.168,947.6
567.303,923.6
567.437,912.9
567.572,915.5
567.706,938.6
567.84,981.5
567.975,999.1
568.109,988.2
568.244,993.9
568.378,1005.9
568.513,1010.6
568.647,995.6
568.781,964.6
568.916,934.4
569.05,918.6
569.185,910.0
569.319,907.0
569.453,904.9
569.588,898.6
569.722,893.5
569.857,895.0
569.991,892.5
570.125,894.5
570.26,890.7
570.394,891.1
570.528,889.6
570.663,891.1
570.797,889.5
570.931,889.7
571.065,892.1
571.2,892.8
571.334,894.8
571.468,898.0
571.603,899.6
571.737,905.6
571.871,901.7
572.005,907.1
572.14,907.2
572.274,917.1
572.408,916.6
572.542,924.7
572.677,924.1
572.811,919.9
572.945,918.6
573.079,911.4
573.213,905.8
573.348,901.5
573.482,901.2
573.616,903.3
573.75,901.6
573.884,898.7
574.018,902.0
574.153,899.9
574.287,901.3
574.421,891.5
574.555,891.8
574.689,886.8
574.823,885.7
574.957,885.2
575.092,885.3
575.226,887.7
575.36,885.1
575.494,887.5
575.628,883.9
575.762,885.3
575.896,886.6
576.03,890.2
576.164,898.1
576.298,910.6
576.432,921.2
576.566,937.9
576.7,940.3
576.834,932.9
576.968,909.1
577.103,895.9
577.237,891.1
577.371,887.3
577.505,888.4
577.639,888.0
577.773,886.3
577.907,885.9
578.04,888.1
578.174,891.0
578.308,884.8
578.442,890.0
578.576,884.6
578.71,886.1
578.844,885.0
578.978,887.0
579.112,886.6
579.246,886.8
579.38,887.8
579.514,887.9
579.648,890.2
579.782,889.2
579.916,889.0
580.049,889.4
580.183,888.6
580.317,887.1
580.451,888.5
580.585,891.4
580.719,895.2
580.853,903.5
580.986,928.8
581.12,969.5
581.254,959.0
581.388,936.4
581.522,953.3
581.656,1025.8
581.789,1113.5
581.923,1067.7
582.057,974.0
582.191,922.3
582.325,900.5
582.458,895.1
582.592,894.5
582.726,891.9
582.86,887.1
582.993,888.8
583.127,888.0
583.261,887.9
583.395,881.9
583.528,885.1
583.662,887.1
583.796,884.6
583.93,882.5
584.063,882.0
584.197,886.3
584.331,885.6
584.464,884.9
584.598,888.2
584.732,884.4
584.865,885.0
584.999,885.1
585.133,882.4
585.266,886.6
585.4,882.0
585.534,880.9
585.667,883.5
585.801,880.5
585.935,881.6
586.068,881.4
586.202,881.7
586.336,880.5
586.469,882.6
586.603,882.0
586.736,880.6
586.87,882.8
587.004,881.6
587.137,883.0
587.271,882.2
587.404,880.6
587.538,880.3
587.671,880.3
587.805,881.9
587.938,882.7
588.072,880.3
588.206,881.5
588.339,880.0
588.473,882.2
588.606,880.7
588.74,880.3
588.873,880.6
589.007,881.4
589.14,877.6
589.274,880.0
589.407,879.8
589.541,874.4
589.674,879.3
589.808,881.3
589.941,876.4
590.074,876.7
590.208,880.1
590.341,882.2
590.475,876.6
590.608,877.7
590.742,879.8
590.875,878.7
591.009,877.6
591.142,876.6
591.275,879.4
591.409,878.9
591.542,879.0
591.676,876.7
591.809,877.1
591.942,879.7
592.076,876.0
592.209,879.0
592.342,876.1
592.476,875.7
592.609,877.9
592.743,877.0
592.876,875.9
593.009,876.7
593.143,876.7
593.276,874.2
593.409,876.4
593.543,876.1
593.676,876.0
593.809,878.1
593.942,876.9
594.076,877.6
594.209,877.6
594.342,873.6
594.476,877.7
594.609,875.9
594.742,878.7
594.875,875.0
595.009,875.7
595.142,873.9
595.275,873.2
595.408,875.9
595.542,875.5
595.675,873.7
595.808,878.6
595.941,875.2
596.075,875.8
596.208,876.0
596.341,875.1
596.474,874.5
596.607,874.7
596.741,872.2
596.874,876.5
597.007,875.2
597.14,874.9
597.273,874.2
597.406,874.4
597.54,875.2
597.673,876.6
597.806,877.2
597.939,872.6
598.072,877.5
598.205,877.8
598.338,875.3
598.472,875.0
598.605,876.9
598.738,875.5
598.871,874.8
599.004,875.3
599.137,877.5
599.27,875.1
599.403,876.7
599.536,876.1
599.67,876.5
599.803,876.5
599.936,877.6
600.069,877.3
600.202,876.9
600.335,877.1
600.468,874.2
600.601,875.8
600.734,872.3
600.867,873.7
601.0,876.8
601.133,876.5
601.266,877.5
601.399,879.8
601.532,878.0
601.665,874.9
601.798,880.6
601.931,874.8
602.064,877.3
602.197,879.6
602.33,875.8
602.463,877.7
602.596,878.9
602.729,874.5
602.862,880.5
602.995,877.3
603.128,876.9
603.261,876.9
603.394,876.5
603.527,874.9
603.66,880.0
603.793,880.8
603.925,875.7
604.058,877.5
604.191,876.8
604.324,876.3
604.457,877.9
604.59,879.3
604.723,878.2
604.856,876.6
604.989,879.5
605.122,876.9
605.254,879.9
605.387,873.9
605.52,876.0
605.653,878.7
605.786,874.5
605.919,875.3
606.052,876.1
606.184,880.8
606.317,876.6
606.45,875.5
606.583,878.4
606.716,878.8
606.849,879.4
606.981,880.1
607.114,877.8
607.247,877.1
607.38,879.9
607.513,878.3
607.645,879.3
607.778,877.8
607.911,882.3
608.044,880.1
608.177,879.6
608.309,882.6
608.442,882.8
608.575,883.6
608.708,880.8
608.84,881.5
608.973,882.6
609.106,883.5
609.239,884.0
609.371,883.8
609.504,880.2
609.637,882.5
609.769,885.1
609.902,881.0
610.035,885.2
610.168,882.0
610.3,882.1
610.433,886.1
610.566,882.1
610.698,884.7
610.831,883.3
610.964,881.7
611.096,883.4
611.229,887.1
611.362,885.2
611.494,886.4
611.627,887.2
611.76,886.7
611.892,884.1
612.025,887.9
612.158,883.4
612.29,890.7
612.423,888.5
612.556,888.4
612.688,886.9
612.821,889.3
612.953,888.9
613.086,890.1
613.219,890.1
613.351,891.2
613.484,887.5
613.616,889.5
613.749,890.8
613.882,889.7
614.014,890.3
614.147,888.8
614.279,887.7
614.412,891.3
614.544,892.9
614.677,891.0
614.809,890.8
614.942,893.1
615.075,890.9
615.207,893.2
615.34,893.0
615.472,895.2
615.605,890.9
615.737,891.6
615.87,892.6
616.002,892.7
616.135,895.6
616.267,896.0
616.4,894.6
616.532,898.3
616.665,896.6
616.797,893.9
616.93,897.9
617.062,896.8
617.195,899.0
617.327,899.8
617.46,904.3
617.592,900.2
617.725,903.7
617.857,902.5
617.989,901.7
618.122,901.2
618.254,900.0
618.387,903.1
618.519,901.0
618.652,902.2
618.784,901.3
618.917,901.1
619.049,906.4
619.181,901.6
619.314,903.6
619.446,900.2
619.579,904.1
619.711,898.6
619.843,903.7
619.976,901.7
620.108,900.8
620.241,902.8
620.373,904.2
620.505,903.6
620.638,900.0
620.77,896.7
620.902,905.1
621.035,903.8
621.167,900.8
621.299,901.4
621.432,904.0
621.564,902.8
621.696,902.2
621.829,902.1
621.961,902.2
622.093,900.7
622.226,903.9
622.358,905.3
622.49,906.4
622.623,909.3
622.755,907.5
622.887,905.2
623.02,905.7
623.152,904.5
623.284,906.1
623.416,904.7
623.549,905.1
623.681,907.8
623.813,904.6
623.946,906.6
624.078,908.4
624.21,904.9
624.342,905.9
624.475,907.7
624.607,908.7
624.739,908.6
624.871,906.2
625.004,911.8
625.136,908.8
625.268,904.8
625.4,909.0
625.533,910.3
625.665,913.7
625.797,909.0
625.929,912.5
626.061,912.3
626.194,908.3
626.326,913.4
626.458,916.9
626.59,921.3
626.722,925.5
626.855,937.1
626.987,954.3
627.119,975.3
627.251,999.3
627.383,1014.6
627.516,1010.4
627.648,1002.8
627.78,993.3
627.912,981.9
628.044,973.1
628.176,973.8
628.308,982.2
628.441,988.7
628.573,997.2
628.705,1018.6
628.837,1033.5
628.969,1057.6
629.101,1070.4
629.233,1096.7
629.366,1114.2
629.498,1116.4
629.63,1110.3
629.762,1105.3
629.894,1097.8
630.026,1086.2
630.158,1072.7
630.29,1058.6
630.422,1046.8
630.554,1032.2
630.687,1027.2
630.819,1011.3
630.951,998.2
631.083,985.2
631.215,975.8
631.347,964.7
631.479,956.1
631.611,960.9
631.743,955.3
631.875,953.2
632.007,954.8
632.139,958.9
632.271,972.4
632.403,982.3
632.535,973.7
632.667,954.7
632.799,945.8
632.931,941.1
633.063,944.9
633.195,966.4
633.328,980.9
633.46,983.2
633.592,961.0
633.724,952.6
633.856,952.9
633.988,958.4
634.12,973.7
634.252,1001.1
634.384,1039.3
634.516,1075.3
634.647,1124.5
634.779,1147.8
634.911,1164.1
635.043,1183.0
635.175,1258.5
635.307,1392.5
635.439,1467.9
635.571,1463.9
635.703,1445.1
635.835,1397.1
635.967,1317.0
636.099,1205.3
636.231,1118.3
636.363,1068.0
636.495,1030.9
636.627,1011.1
636.759,991.7
636.891,975.9
637.023,966.6
637.155,951.7
637.286,946.1
637.418,948.0
637.55,947.3
637.682,940.4
637.814,943.7
637.946,934.9
638.078,934.6
638.21,930.6
638.342,925.9
638.474,931.0
638.605,932.1
638.737,927.8
638.869,931.4
639.001,923.3
639.133,929.3
639.265,927.9
639.397,930.2
639.529,924.8
639.66,932.5
639.792,936.8
639.924,943.5
640.056,942.7
640.188,936.2
640.32,933.1
640.452,929.7
640.583,930.0
640.715,924.8
640.847,925.1
640.979,932.5
641.111,927.2
641.243,932.7
641.374,937.4
641.506,938.9
641.638,936.2
641.77,936.3
641.902,931.6
642.033,927.6
642.165,925.7
642.297,926.6
642.429,923.2
642.561,921.9
642.692,917.9
642.824,921.2
642.956,923.2
643.088,922.5
643.22,924.9
643.351,921.6
643.483,919.2
643.615,921.1
643.747,919.7
643.878,924.3
644.01,920.5
644.142,924.4
644.274,922.8
644.405,919.5
644.537,922.2
644.669,924.4
644.801,923.7
644.932,920.2
645.064,919.1
645.196,919.5
645.328,921.7
645.459,918.2
645.591,921.0
645.723,920.9
645.854,924.5
645.986,920.7
646.118,924.9
646.25,921.4
646.381,922.1
646.513,919.7
646.645,922.1
646.776,927.5
646.908,923.5
647.04,921.2
647.172,923.1
647.303,925.7
647.435,920.1
647.567,925.1
647.698,924.7
647.83,924.0
647.962,925.9
648.093,924.2
648.225,920.4
648.357,922.5
648.488,923.4
648.62,925.7
648.752,923.6
648.883,929.9
649.015,924.6
649.147,924.7
649.278,919.9
649.41,925.4
649.542,929.4
649.673,922.0
649.805,926.3
649.937,921.9
650.068,921.3
650.2,922.7
650.331,923.2
650.463,923.7
650.595,922.7
650.726,920.4
650.858,926.8
650.99,921.7
651.121,925.0
651.253,923.7
651.384,923.8
651.516,921.6
651.648,922.9
651.779,926.7
651.911,922.9
652.042,924.8
652.174,926.2
652.306,927.1
652.437,926.8
652.569,928.3
652.7,928.0
652.832,924.5
652.963,932.9
653.095,925.2
653.227,927.1
653.358,929.1
653.49,926.4
653.621,925.3
653.753,927.9
653.884,926.7
654.016,927.3
654.148,934.2
654.279,929.6
654.411,928.4
654.542,926.5
654.674,923.8
654.805,926.4
654.937,927.3
655.068,928.6
655.2,931.0
655.331,927.8
655.463,924.4
655.595,926.2
655.726,931.2
655.858,928.2
655.989,924.6
656.121,931.3
656.252,927.6
656.384,927.0
656.515,930.9
656.647,930.2
656.778,928.5
656.91,931.9
657.041,930.3
657.173,930.3
657.304,930.8
657.436,931.8
657.567,929.3
657.699,927.3
657.83,928.3
657.962,931.5
658.093,933.1
658.225,931.3
658.356,935.3
658.488,931.2
658.619,932.9
658.751,930.3
658.882,930.3
659.013,932.1
659.145,934.7
659.276,931.4
659.408,933.3
659.539,931.2
659.671,936.2
659.802,934.2
659.934,935.9
660.065,932.5
660.197,930.7
660.328,932.8
660.459,934.2
660.591,930.1
660.722,933.1
660.854,933.6
660.985,931.7
661.117,936.4
661.248,937.1
661.38,933.2
661.511,935.5
661.642,931.4
661.774,930.5
661.905,931.7
662.037,934.5
662.168,929.7
662.299,935.8
662.431,935.3
662.562,932.0
662.694,931.7
662.825,933.8
662.957,929.9
663.088,934.1
