nm,Intensity
526.486,829.1
526.622,828.4
526.759,828.5
526.896,830.9
527.033,830.2
527.169,829.9
527.306,830.9
527.443,830.3
527.579,830.0
527.716,829.5
527.853,829.7
527.989,830.7
528.126,830.9
528.263,832.1
528.399,829.5
528.536,830.2
528.672,830.6
528.809,829.6
528.946,831.4
529.082,831.1
529.219,829.8
529.355,828.7
529.492,831.9
529.628,830.5
529.765,831.5
529.901,829.7
530.038,831.6
530.174,829.3
530.311,830.0
530.447,829.2
530.584,830.4
530.72,830.9
530.857,829.9
530.993,830.7
531.13,829.5
531.266,830.5
531.403,829.4
531.539,829.9
531.676,832.1
531.812,828.8
531.948,832.9
532.085,846.0
532.221,862.2
532.358,840.3
532.494,831.2
532.63,829.6
532.767,830.4
532.903,831.1
533.039,829.9
533.176,831.2
533.312,829.6
533.448,831.1
533.585,832.6
533.721,847.2
533.857,923.4
533.993,1079.2
534.13,1166.6
534.266,1173.0
534.402,1164.4
534.539,1151.9
534.675,1138.6
534.811,1131.0
534.947,1117.9
535.083,1102.9
535.22,1096.0
535.356,1089.7
535.492,1088.0
535.628,1088.2
535.764,1082.5
535.901,1077.3
536.037,1074.5
536.173,1066.0
536.309,1061.0
536.445,1058.2
536.581,1053.5
536.717,1054.4
536.854,1055.0
536.99,1056.4
537.126,1047.6
537.262,1049.1
537.398,1054.0
537.534,1055.5
537.67,1050.5
537.806,1053.4
537.942,1059.2
538.078,1055.8
538.214,1052.2
538.35,1067.5
538.486,1059.5
538.622,1056.0
538.758,1057.2
538.894,1055.7
539.03,1063.4
539.166,1059.5
539.302,1064.0
539.438,1059.6
539.574,1069.3
539.71,1067.7
539.846,1070.8
539.982,1075.2
540.118,1071.6
540.254,1074.2
540.39,1075.5
540.526,1070.0
540.662,1069.7
540.798,1060.3
540.933,1070.0
541.069,1072.9
541.205,1071.6
541.341,1077.0
541.477,1073.8
541.613,1072.7
541.749,1076.9
541.884,1081.3
542.02,1081.4
542.156,1078.4
542.292,1074.1
542.428,1074.2
542.563,1074.0
542.699,1086.3
542.835,1080.8
542.971,1081.1
543.106,1079.6
543.242,1087.2
543.378,1086.4
543.514,1080.1
543.649,1089.3
543.785,1090.3
543.921,1092.8
544.057,1088.4
544.192,1089.3
544.328,1097.6
544.464,1090.7
544.599,1090.8
544.735,1089.2
544.871,1099.4
545.006,1095.1
545.142,1095.7
545.278,1101.4
545.413,1095.8
545.549,1096.6
545.684,1100.0
545.82,1096.1
545.956,1098.4
546.091,1100.5
546.227,1104.2
546.362,1095.1
546.498,1104.2
546.634,1106.5
546.769,1102.0
546.905,1108.4
547.04,1107.0
547.176,1105.1
547.311,1108.6
547.447,1109.4
547.582,1107.1
547.718,1111.1
547.853,1105.9
547.989,1114.4
548.124,1116.1
548.26,1104.4
548.395,1116.0
548.531,1118.0
548.666,1115.3
548.802,1116.7
548.937,1126.4
549.072,1132.8
549.208,1123.8
549.343,1117.2
549.479,1117.1
549.614,1125.4
549.75,1126.4
549.885,1128.9
550.02,1122.2
550.156,1123.4
550.291,1130.1
550.426,1129.4
550.562,1151.1
550.697,1174.1
550.832,1164.5
550.968,1142.0
551.103,1136.7
551.238,1127.1
551.374,1130.4
551.509,1138.5
551.644,1135.1
551.78,1132.9
551.915,1129.5
552.05,1136.4
552.185,1134.4
552.321,1139.4
552.456,1140.5
552.591,1139.0
552.726,1146.9
552.862,1155.3
552.997,1153.7
553.132,1141.4
553.267,1143.6
553.403,1156.7
553.538,1141.9
553.673,1150.8
553.808,1150.8
553.943,1153.1
554.078,1148.4
554.214,1142.2
554.349,1157.9
554.484,1146.9
554.619,1155.0
554.754,1162.8
554.889,1160.4
555.024,1153.0
555.16,1157.3
555.295,1162.1
555.43,1163.9
555.565,1175.0
555.7,1170.4
555.835,1172.9
555.97,1165.1
556.105,1167.9
556.24,1173.3
556.375,1174.6
556.51,1175.1
556.645,1180.5
556.78,1185.3
556.915,1178.6
557.05,1183.4
557.185,1191.2
557.32,1198.8
557.455,1218.9
557.59,1260.8
557.725,1274.5
557.86,1239.7
557.995,1196.6
558.13,1182.4
558.265,1191.1
558.4,1184.3
558.535,1187.7
558.67,1182.9
558.805,1183.8
558.94,1182.0
559.075,1189.0
559.21,1181.9
559.345,1183.4
559.479,1183.9
559.614,1179.3
559.749,1188.9
559.884,1190.1
560.019,1189.7
560.154,1183.9
560.289,1192.8
560.424,1193.1
560.558,1190.5
560.693,1193.6
560.828,1204.9
560.963,1204.4
561.098,1203.0
561.232,1199.4
561.367,1201.5
561.502,1201.4
561.637,1211.2
561.772,1202.3
561.906,1219.5
562.041,1213.3
562.176,1223.1
562.311,1223.7
562.445,1212.3
562.58,1205.8
562.715,1218.8
562.85,1223.5
562.984,1215.3
563.119,1218.7
563.254,1218.4
563.388,1219.0
563.523,1222.7
563.658,1223.0
563.792,1223.1
563.927,1217.2
564.062,1222.2
564.196,1234.3
564.331,1233.3
564.466,1231.9
564.6,1239.0
564.735,1244.4
564.87,1251.0
565.004,1272.2
565.139,1281.4
565.273,1281.2
565.408,1269.1
565.543,1263.6
565.677,1271.5
565.812,1275.4
565.946,1276.4
566.081,1264.2
566.215,1256.8
566.35,1248.8
566.485,1240.8
566.619,1236.4
566.754,1236.6
566.888,1239.3
567.023,1238.7
567.157,1232.2
567.292,1235.7
567.426,1241.0
567.561,1251.7
567.695,1262.1
567.83,1260.4
567.964,1261.4
568.099,1253.4
568.233,1253.9
568.368,1254.8
568.502,1249.2
568.636,1250.0
568.771,1260.6
568.905,1249.3
569.04,1253.9
569.174,1253.6
569.309,1261.1
569.443,1262.7
569.577,1271.0
569.712,1265.0
569.846,1270.0
569.98,1269.3
570.115,1274.8
570.249,1266.2
570.384,1286.7
570.518,1282.0
570.652,1293.1
570.787,1304.5
570.921,1323.2
571.055,1342.8
571.19,1382.6
571.324,1395.0
571.458,1396.9
571.592,1390.1
571.727,1348.5
571.861,1335.2
571.995,1322.7
572.13,1316.2
572.264,1307.2
572.398,1287.9
572.532,1288.4
572.667,1286.4
572.801,1283.8
572.935,1284.8
573.069,1281.3
573.204,1278.4
573.338,1289.4
573.472,1283.8
573.606,1287.3
573.74,1295.7
573.875,1294.7
574.009,1302.1
574.143,1294.7
574.277,1297.5
574.411,1292.2
574.545,1296.2
574.68,1295.0
574.814,1294.5
574.948,1296.4
575.082,1294.7
575.216,1310.0
575.35,1316.7
575.484,1326.7
575.619,1316.9
575.753,1330.3
575.887,1312.8
576.021,1310.7
576.155,1306.3
576.289,1307.3
576.423,1312.4
576.557,1309.7
576.691,1318.6
576.825,1318.0
576.959,1322.6
577.093,1312.5
577.227,1324.3
577.361,1319.5
577.495,1315.9
577.629,1322.0
577.763,1314.9
577.897,1317.2
578.031,1316.6
578.165,1313.8
578.299,1311.7
578.433,1320.5
578.567,1319.9
578.701,1315.1
578.835,1316.5
578.969,1320.2
579.103,1312.5
579.237,1323.4
579.371,1321.6
579.505,1330.6
579.639,1325.4
579.773,1315.0
579.907,1324.4
580.041,1325.1
580.175,1325.0
580.309,1325.0
580.442,1325.5
580.576,1333.6
580.71,1323.0
580.844,1331.6
580.978,1333.9
581.112,1342.5
581.246,1335.2
581.38,1350.6
581.513,1347.4
581.647,1370.6
581.781,1409.4
581.915,1492.6
582.049,1659.2
582.183,1843.8
582.316,1781.1
582.45,1551.8
582.584,1413.6
582.718,1382.7
582.852,1366.7
582.985,1358.9
583.119,1354.9
583.253,1360.5
583.387,1354.3
583.52,1358.3
583.654,1361.6
583.788,1354.4
583.922,1359.9
584.055,1348.4
584.189,1355.5
584.323,1353.6
584.456,1361.0
584.59,1355.0
584.724,1356.8
584.858,1363.7
584.991,1367.1
585.125,1369.6
585.259,1372.3
585.392,1381.4
585.526,1405.8
585.66,1457.2
585.793,1509.8
585.927,1570.1
586.061,1616.7
586.194,1595.4
586.328,1549.1
586.462,1508.2
586.595,1463.0
586.729,1420.8
586.862,1395.4
586.996,1392.8
587.13,1401.3
587.263,1375.5
587.397,1377.4
587.53,1373.8
587.664,1374.2
587.797,1376.3
587.931,1379.5
588.065,1368.1
588.198,1370.5
588.332,1366.2
588.465,1369.0
588.599,1366.8
588.732,1369.0
588.866,1372.4
588.999,1376.6
589.133,1367.5
589.266,1382.5
589.4,1368.6
589.533,1365.9
589.667,1371.1
589.8,1379.4
589.934,1370.7
590.067,1373.8
590.201,1371.4
590.334,1372.6
590.468,1368.7
590.601,1384.5
590.735,1367.3
590.868,1374.5
591.001,1374.6
591.135,1374.1
591.268,1379.3
591.402,1386.6
591.535,1380.3
591.669,1386.6
591.802,1384.2
591.935,1375.3
592.069,1378.4
592.202,1381.5
592.335,1379.0
592.469,1381.8
592.602,1377.7
592.736,1381.1
592.869,1378.6
593.002,1388.0
593.136,1381.4
593.269,1378.9
593.402,1381.9
593.536,1383.2
593.669,1377.7
593.802,1387.5
593.936,1377.8
594.069,1387.2
594.202,1387.4
594.336,1384.4
594.469,1387.5
594.602,1385.5
594.735,1391.8
594.869,1385.3
595.002,1393.6
595.135,1389.9
595.268,1390.0
595.402,1393.9
595.535,1394.9
595.668,1403.8
595.801,1398.1
595.935,1398.0
596.068,1395.9
596.201,1399.4
596.334,1400.1
596.468,1396.4
596.601,1401.9
596.734,1395.4
596.867,1402.2
597.0,1401.2
597.133,1403.5
597.267,1402.7
597.4,1405.5
597.533,1400.1
597.666,1404.2
597.799,1395.0
597.932,1405.6
598.066,1410.0
598.199,1407.0
598.332,1414.5
598.465,1415.4
598.598,1405.1
598.731,1415.7
598.864,1412.7
598.998,1418.4
599.131,1412.9
599.264,1410.9
599.397,1410.3
599.53,1417.4
599.663,1422.1
599.796,1418.7
599.929,1420.0
600.062,1412.1
600.195,1419.0
600.328,1402.7
600.461,1417.0
600.594,1412.6
600.727,1414.9
600.86,1412.9
600.994,1415.7
601.127,1406.6
601.26,1410.1
601.393,1412.1
601.526,1414.7
601.659,1422.7
601.792,1418.8
601.925,1416.8
602.058,1426.6
602.191,1404.1
602.324,1415.9
602.457,1429.2
602.589,1421.4
602.722,1426.4
602.855,1420.7
602.988,1426.1
603.121,1426.0
603.254,1429.7
603.387,1429.1
603.52,1429.6
603.653,1434.1
603.786,1432.2
603.919,1436.4
604.052,1426.6
604.185,1440.8
604.318,1431.0
604.451,1441.4
604.583,1430.1
604.716,1429.0
604.849,1429.7
604.982,1430.3
605.115,1425.2
605.248,1424.7
605.381,1426.2
605.514,1425.8
605.646,1434.6
605.779,1431.7
605.912,1425.6
606.045,1429.8
606.178,1425.6
606.311,1423.1
606.443,1427.7
606.576,1431.1
606.709,1434.6
606.842,1421.9
606.975,1436.6
607.107,1436.9
607.24,1426.2
607.373,1430.8
607.506,1442.2
607.639,1442.1
607.771,1438.7
607.904,1452.9
608.037,1444.8
608.17,1451.7
608.302,1449.8
608.435,1444.1
608.568,1461.2
608.701,1454.9
608.833,1454.8
608.966,1453.6
609.099,1453.1
609.232,1458.0
609.364,1455.3
609.497,1457.2
609.63,1460.8
609.762,1456.8
609.895,1462.2
610.028,1466.0
610.161,1463.7
610.293,1464.6
610.426,1459.3
610.559,1470.6
610.691,1469.6
610.824,1463.1
610.957,1468.6
611.089,1470.0
611.222,1471.7
611.355,1475.4
611.487,1470.6
611.62,1480.3
611.752,1485.9
611.885,1486.1
612.018,1486.5
612.15,1487.7
612.283,1492.0
612.416,1491.8
612.548,1491.1
612.681,1508.5
612.813,1510.2
612.946,1519.3
613.078,1509.9
613.211,1517.2
613.344,1519.7
613.476,1512.7
613.609,1511.5
613.741,1512.4
613.874,1526.2
614.006,1520.4
614.139,1530.8
614.272,1531.3
614.404,1535.2
614.537,1529.4
614.669,1532.6
614.802,1530.1
614.934,1536.9
615.067,1538.5
615.199,1529.3
615.332,1545.0
615.464,1554.8
615.597,1551.0
615.729,1539.6
615.862,1541.9
615.994,1544.7
616.127,1543.0
616.259,1553.5
616.392,1556.2
616.524,1551.5
616.657,1551.5
616.789,1554.4
616.922,1565.5
617.054,1564.1
617.186,1562.5
617.319,1563.9
617.451,1566.4
617.584,1566.6
617.716,1575.8
617.849,1582.1
617.981,1586.3
618.113,1580.9
618.246,1588.0
618.378,1591.8
618.511,1580.6
618.643,1594.6
618.775,1582.1
618.908,1587.6
619.04,1602.2
619.173,1587.7
619.305,1601.2
619.437,1606.3
619.57,1590.2
619.702,1595.3
619.834,1598.1
619.967,1611.3
620.099,1605.6
620.231,1598.0
620.364,1603.2
620.496,1604.3
620.628,1605.0
620.761,1618.3
620.893,1608.8
621.025,1602.6
621.158,1604.7
621.29,1615.1
621.422,1611.3
621.555,1613.1
621.687,1622.5
621.819,1616.6
621.952,1619.3
622.084,1629.9
622.216,1628.8
622.348,1630.0
622.481,1635.8
622.613,1642.1
622.745,1637.5
622.878,1644.7
623.01,1657.8
623.142,1649.6
623.274,1648.3
623.407,1652.9
623.539,1665.0
623.671,1671.9
623.803,1663.4
623.935,1668.5
624.068,1672.7
624.2,1668.0
624.332,1686.1
624.464,1680.5
624.597,1684.6
624.729,1679.4
624.861,1680.6
624.993,1672.4
625.125,1682.5
625.258,1687.9
625.39,1687.0
625.522,1679.4
625.654,1685.6
625.786,1694.8
625.918,1692.8
626.051,1695.7
626.183,1692.0
626.315,1697.3
626.447,1691.8
626.579,1710.3
626.711,1704.0
626.844,1703.0
626.976,1702.0
627.108,1698.1
627.24,1709.2
627.372,1712.8
627.504,1711.6
627.636,1717.6
627.768,1709.6
627.901,1722.3
628.033,1717.5
628.165,1721.3
628.297,1721.2
628.429,1728.1
628.561,1723.9
628.693,1734.4
628.825,1742.5
628.957,1733.3
629.089,1745.5
629.221,1748.0
629.354,1750.7
629.486,1755.6
629.618,1766.8
629.75,1756.4
629.882,1755.9
630.014,1762.6
630.146,1757.4
630.278,1763.0
630.41,1758.7
630.542,1768.3
630.674,1759.1
630.806,1768.3
630.938,1766.1
631.07,1791.9
631.202,1784.4
631.334,1795.4
631.466,1798.8
631.598,1802.2
631.73,1816.9
631.862,1816.9
631.994,1814.0
632.126,1814.6
632.258,1825.3
632.39,1809.8
632.522,1806.6
632.654,1813.9
632.786,1800.8
632.918,1808.4
633.05,1808.8
633.182,1802.2
633.314,1817.3
633.446,1803.4
633.578,1816.8
633.71,1824.4
633.842,1800.9
633.974,1802.6
634.106,1809.5
634.237,1806.8
634.369,1791.3
634.501,1799.6
634.633,1815.0
634.765,1812.5
634.897,1819.5
635.029,1806.0
635.161,1805.7
635.293,1812.9
635.425,1819.0
635.557,1828.0
635.689,1839.9
635.82,1835.4
635.952,1839.7
636.084,1843.1
636.216,1854.3
636.348,1869.3
636.48,1889.1
636.612,1889.7
636.744,1903.3
636.875,1878.1
637.007,1869.9
637.139,1856.3
637.271,1858.1
637.403,1847.4
637.535,1845.1
637.667,1852.6
637.798,1848.1
637.93,1853.5
638.062,1850.6
638.194,1835.6
638.326,1854.1
638.458,1851.2
638.589,1849.9
638.721,1850.3
638.853,1858.3
638.985,1860.4
639.117,1855.6
639.248,1854.6
639.38,1869.9
639.512,1858.7
639.644,1851.9
639.776,1856.5
639.907,1861.4
640.039,1866.1
640.171,1878.5
640.303,1875.4
640.435,1863.9
640.566,1874.3
640.698,1865.4
640.83,1880.8
640.962,1874.0
641.093,1876.3
641.225,1873.9
641.357,1884.5
641.489,1878.6
641.62,1881.1
641.752,1887.2
641.884,1896.5
642.016,1891.9
642.147,1895.9
642.279,1892.8
642.411,1895.0
642.543,1894.0
642.674,1893.9
642.806,1895.9
642.938,1883.2
643.069,1885.1
643.201,1896.5
643.333,1883.0
643.465,1880.6
643.596,1885.0
643.728,1885.9
643.86,1886.5
643.991,1880.6
644.123,1880.2
644.255,1891.1
644.386,1880.5
644.518,1881.0
644.65,1878.1
644.781,1876.6
644.913,1881.5
645.045,1880.8
645.176,1888.3
645.308,1873.1
645.44,1877.5
645.571,1886.1
645.703,1885.7
645.835,1892.4
645.966,1884.6
646.098,1888.7
646.23,1886.5
646.361,1882.6
646.493,1896.1
646.625,1904.2
646.756,1885.5
646.888,1895.7
647.019,1899.1
647.151,1908.7
647.283,1906.0
647.414,1896.2
647.546,1910.2
647.678,1901.9
647.809,1901.1
647.941,1904.5
648.072,1909.2
648.204,1902.1
648.336,1906.7
648.467,1905.8
648.599,1904.5
648.73,1900.4
648.862,1897.8
648.993,1901.5
649.125,1903.2
649.257,1899.0
649.388,1903.7
649.52,1899.3
649.651,1906.8
649.783,1907.4
649.914,1897.0
650.046,1895.7
650.178,1890.2
650.309,1912.9
650.441,1907.0
650.572,1899.7
650.704,1894.7
650.835,1897.7
650.967,1901.0
651.098,1907.3
651.23,1913.0
651.361,1897.6
651.493,1909.3
651.625,1913.1
651.756,1916.7
651.888,1912.2
652.019,1916.8
652.151,1914.2
652.282,1914.5
652.414,1911.5
652.545,1910.2
652.677,1919.2
652.808,1922.4
652.94,1908.2
653.071,1918.2
653.203,1926.5
653.334,1922.2
653.466,1915.6
653.597,1919.9
653.729,1920.3
653.86,1921.5
653.992,1924.7
654.123,1917.9
654.255,1922.0
654.386,1908.4
654.518,1919.0
654.649,1923.4
654.78,1924.1
654.912,1926.7
655.043,1932.6
655.175,1921.4
655.306,1912.5
655.438,1916.5
655.569,1928.6
655.701,1914.3
655.832,1917.0
655.964,1920.0
656.095,1926.8
656.226,1920.9
656.358,1918.3
656.489,1916.0
656.621,1920.2
656.752,1935.2
656.884,1939.6
657.015,1923.4
657.146,1935.4
657.278,1936.8
657.409,1935.0
657.541,1941.3
657.672,1926.6
657.804,1938.0
657.935,1933.0
658.066,1933.1
658.198,1932.5
658.329,1933.0
658.461,1949.6
658.592,1926.1
658.723,1940.6
658.855,1946.0
658.986,1937.8
659.118,1944.1
659.249,1933.5
659.38,1947.7
659.512,1952.3
659.643,1940.5
659.774,1942.5
659.906,1937.9
660.037,1938.3
660.169,1945.7
660.3,1928.3
660.431,1935.6
660.563,1946.1
660.694,1935.9
660.825,1930.0
660.957,1928.3
661.088,1936.4
661.22,1936.4
661.351,1924.6
661.482,1937.1
661.614,1928.2
661.745,1940.3
661.876,1939.7
662.008,1938.3
662.139,1938.3
662.27,1921.1
662.402,1928.0
662.533,1926.5
662.664,1925.9
662.796,1926.2
662.927,1934.9
663.058,1924.0
