nm,Intensity
528.626,1864.6
528.711,1863.97
528.795,1864.3
528.879,1863.73
528.963,1864.87
529.048,1864.4
529.132,1864.5
529.216,1865.73
529.3,1864.27
529.385,1864.57
529.469,1865.5
529.553,1864.8
529.637,1864.8
529.721,1864.63
529.806,1864.13
529.89,1864.2
529.974,1865.2
530.058,1864.63
530.143,1865.37
530.227,1865.3
530.311,1865.0
530.395,1864.37
530.48,1865.33
530.564,1865.5
530.648,1866.0
530.732,1865.13
530.816,1865.03
530.901,1866.87
530.985,1865.93
531.069,1866.7
531.153,1868.73
531.237,1870.03
531.322,1871.23
531.406,1874.33
531.49,1876.07
531.574,1888.07
531.658,1924.37
531.743,2087.6
531.827,2782.27
531.911,4157.03
531.995,5222.43
532.079,5849.63
532.164,5057.13
532.248,3439.2
532.332,2211.43
532.416,1901.9
532.5,1872.87
532.585,1868.87
532.669,1868.43
532.753,1866.13
532.837,1866.4
532.921,1867.97
533.006,1867.53
533.09,1866.7
533.174,1868.0
533.258,1869.97
533.342,1872.3
533.426,1881.97
533.511,1912.77
533.595,1996.43
533.679,2173.97
533.763,2424.33
533.847,2678.33
533.931,2879.0
534.016,3041.43
534.1,3119.73
534.184,3151.47
534.268,3155.7
534.352,3129.17
534.436,3129.7
534.521,3159.4
534.605,3173.23
534.689,3203.2
534.773,3168.7
534.857,3218.6
534.941,3256.37
535.025,3245.83
535.11,3227.47
535.194,3282.87
535.278,3331.0
535.362,3335.67
535.446,3346.5
535.53,3323.8
535.614,3328.8
535.699,3303.93
535.783,3297.93
535.867,3302.73
535.951,3283.27
536.035,3300.27
536.119,3313.9
536.203,3326.47
536.287,3316.03
536.372,3304.67
536.456,3312.3
536.54,3328.87
536.624,3335.47
536.708,3319.2
536.792,3284.67
536.876,3334.57
536.96,3318.13
537.044,3308.9
537.129,3344.53
537.213,3353.73
537.297,3387.9
537.381,3395.2
537.465,3397.9
537.549,3395.97
537.633,3418.2
537.717,3430.83
537.801,3440.53
537.885,3436.4
537.97,3457.37
538.054,3458.83
538.138,3432.1
538.222,3450.73
538.306,3441.77
538.39,3407.57
538.474,3398.07
538.558,3386.93
538.642,3421.23
538.726,3440.37
538.81,3426.9
538.894,3435.9
538.979,3424.2
539.063,3436.23
539.147,3427.53
539.231,3444.37
539.315,3423.57
539.399,3466.93
539.483,3494.0
539.567,3486.57
539.651,3467.67
539.735,3499.27
539.819,3491.7
539.903,3495.63
539.987,3508.73
540.071,3512.57
540.155,3486.3
540.239,3506.33
540.324,3504.8
540.408,3494.37
540.492,3512.63
540.576,3542.77
540.66,3552.0
540.744,3526.1
540.828,3503.3
540.912,3517.93
540.996,3540.6
541.08,3539.83
541.164,3574.63
541.248,3607.0
541.332,3568.83
541.416,3571.57
541.5,3528.1
541.584,3571.1
541.668,3594.47
541.752,3572.37
541.836,3577.1
541.92,3582.53
542.004,3606.27
542.088,3627.43
542.172,3629.97
542.256,3629.3
542.34,3619.57
542.424,3629.07
542.508,3652.67
542.592,3692.37
542.676,3679.4
542.76,3661.8
542.844,3664.53
542.928,3671.0
543.012,3687.23
543.096,3678.2
543.18,3689.97
543.264,3674.9
543.348,3674.17
543.432,3712.63
543.516,3719.47
543.6,3719.83
543.684,3723.33
543.768,3741.03
543.852,3749.6
543.936,3754.13
544.02,3727.97
544.104,3736.7
544.188,3717.97
544.272,3702.17
544.356,3711.8
544.44,3746.43
544.524,3752.53
544.608,3727.2
544.692,3734.7
544.776,3747.53
544.86,3763.47
544.944,3792.33
545.028,3785.33
545.112,3763.67
545.196,3766.1
545.28,3780.7
545.364,3784.83
545.448,3789.0
545.532,3801.1
545.616,3836.77
545.7,3822.43
545.784,3808.5
545.867,3847.5
545.951,3845.4
546.035,3833.43
546.119,3787.8
546.203,3813.4
546.287,3859.4
546.371,3850.2
546.455,3825.93
546.539,3855.47
546.623,3886.87
546.707,3875.23
546.791,3858.63
546.875,3889.57
546.959,3884.5
547.043,3910.8
547.127,3924.43
547.21,3943.3
547.294,3905.97
547.378,3896.73
547.462,3919.13
547.546,3932.1
547.63,3944.83
547.714,3939.0
547.798,3949.03
547.882,3974.73
547.966,3965.53
548.05,3933.27
548.134,3933.33
548.217,3952.67
548.301,4005.57
548.385,4036.53
548.469,4028.47
548.553,4009.5
548.637,4005.23
548.721,4018.03
548.805,4015.13
548.889,3972.4
548.972,3979.63
549.056,4008.67
549.14,4027.6
549.224,4021.2
549.308,4017.67
549.392,4044.83
549.476,4040.8
549.56,4029.5
549.644,4048.9
549.727,4057.13
549.811,4063.53
549.895,4040.37
549.979,4014.8
550.063,4042.67
550.147,4090.47
550.231,4121.13
550.315,4095.7
550.398,4087.93
550.482,4042.57
550.566,4069.7
550.65,4112.77
550.734,4152.47
550.818,4169.67
550.902,4134.9
550.985,4152.57
551.069,4184.7
551.153,4195.1
551.237,4184.7
551.321,4163.87
551.405,4212.4
551.488,4194.6
551.572,4200.7
551.656,4200.07
551.74,4235.47
551.824,4253.73
551.908,4235.37
551.991,4200.53
552.075,4193.13
552.159,4198.13
552.243,4230.7
552.327,4232.2
552.411,4256.93
552.494,4267.8
552.578,4271.67
552.662,4270.63
552.746,4217.77
552.83,4227.03
552.914,4237.53
552.997,4252.27
553.081,4262.8
553.165,4254.93
553.249,4249.0
553.333,4224.77
553.416,4269.0
553.5,4250.5
553.584,4237.83
553.668,4266.4
553.752,4304.33
553.835,4339.0
553.919,4324.0
554.003,4295.7
554.087,4312.53
554.171,4333.37
554.254,4281.43
554.338,4268.97
554.422,4315.3
554.506,4332.07
554.589,4361.3
554.673,4301.23
554.757,4287.07
554.841,4332.37
554.925,4387.9
555.008,4414.17
555.092,4398.47
555.176,4366.43
555.26,4342.33
555.343,4317.13
555.427,4339.77
555.511,4345.3
555.595,4357.27
555.679,4351.13
555.762,4330.07
555.846,4342.43
555.93,4380.4
556.014,4390.07
556.097,4390.6
556.181,4354.43
556.265,4374.3
556.349,4358.2
556.432,4351.17
556.516,4377.4
556.6,4404.33
556.684,4388.83
556.767,4367.83
556.851,4374.6
556.935,4417.17
557.018,4425.23
557.102,4435.03
557.186,4424.07
557.27,4422.7
557.353,4409.87
557.437,4376.97
557.521,4461.73
557.605,4475.57
557.688,4472.47
557.772,4464.37
557.856,4508.3
557.939,4549.47
558.023,4540.53
558.107,4582.57
558.191,4539.33
558.274,4562.03
558.358,4519.2
558.442,4518.7
558.525,4489.53
558.609,4493.73
558.693,4496.5
558.776,4480.77
558.86,4495.93
558.944,4502.7
559.028,4515.3
559.111,4509.77
559.195,4516.13
559.279,4535.63
559.362,4512.23
559.446,4518.87
559.53,4511.37
559.613,4560.5
559.697,4505.07
559.781,4516.1
559.864,4506.47
559.948,4555.1
560.032,4574.13
560.115,4560.17
560.199,4538.67
560.283,4539.77
560.366,4555.57
560.45,4616.93
560.534,4611.73
560.617,4588.57
560.701,4546.93
560.785,4571.5
560.868,4564.87
560.952,4614.73
561.036,4670.57
561.119,4647.47
561.203,4613.4
561.287,4615.2
561.37,4644.47
561.454,4670.0
561.538,4676.03
561.621,4634.5
561.705,4601.83
561.789,4584.37
561.872,4621.77
561.956,4690.2
562.039,4717.8
562.123,4714.67
562.207,4686.87
562.29,4678.77
562.374,4669.77
562.458,4721.27
562.541,4699.3
562.625,4713.27
562.708,4729.0
562.792,4688.97
562.876,4704.8
562.959,4723.77
563.043,4715.0
563.127,4682.17
563.21,4697.0
563.294,4746.23
563.377,4755.07
563.461,4696.57
563.545,4688.8
563.628,4749.67
563.712,4821.27
563.795,4805.53
563.879,4770.43
563.963,4719.47
564.046,4727.9
564.13,4711.5
564.213,4730.6
564.297,4762.83
564.38,4760.63
564.464,4813.1
564.548,4793.1
564.631,4834.2
564.715,4822.3
564.798,4810.87
564.882,4850.93
564.966,4831.97
565.049,4827.37
565.133,4863.37
565.216,4874.03
565.3,4845.17
565.383,4861.43
565.467,4870.77
565.551,4859.77
565.634,4866.47
565.718,4895.73
565.801,4900.3
565.885,4861.77
565.968,4891.27
566.052,4933.73
566.135,4916.37
566.219,4863.57
566.302,4878.27
566.386,4961.3
566.47,4931.77
566.553,4904.8
566.637,4896.2
566.72,4913.97
566.804,4885.1
566.887,4906.7
566.971,4947.2
567.054,4906.37
567.138,4891.83
567.221,4965.4
567.305,4971.67
567.388,4935.93
567.472,4937.47
567.555,4947.1
567.639,4919.17
567.722,4939.07
567.806,4957.3
567.889,5005.33
567.973,5009.73
568.057,5013.8
568.14,5017.7
568.224,5072.23
568.307,5041.93
568.391,4990.2
568.474,5009.83
568.558,5000.23
568.641,5014.5
568.725,4994.63
568.808,4989.0
568.892,5016.67
568.975,5108.4
569.058,5106.5
569.142,5080.2
569.225,5070.33
569.309,5113.4
569.392,5144.27
569.476,5068.8
569.559,5053.33
569.643,5086.87
569.726,5114.53
569.81,5129.0
569.893,5158.23
569.977,5136.93
570.06,5129.3
570.144,5123.17
570.227,5114.8
570.311,5123.3
570.394,5168.33
570.477,5187.83
570.561,5101.7
570.644,5080.43
570.728,5116.13
570.811,5126.9
570.895,5146.27
570.978,5165.3
571.062,5164.0
571.145,5120.83
571.229,5099.23
571.312,5191.5
571.395,5271.0
571.479,5239.2
571.562,5235.9
571.646,5238.63
571.729,5263.13
571.813,5203.17
571.896,5229.03
571.979,5262.5
572.063,5285.67
572.146,5254.7
572.23,5269.63
572.313,5313.83
572.397,5384.43
572.48,5370.2
572.563,5377.23
572.647,5312.8
572.73,5287.17
572.814,5313.07
572.897,5342.13
572.98,5322.6
573.064,5305.1
573.147,5224.33
573.231,5222.3
573.314,5318.9
573.397,5364.77
573.481,5331.03
573.564,5342.83
573.648,5305.5
573.731,5300.73
573.814,5333.77
573.898,5313.97
573.981,5329.03
574.064,5375.7
574.148,5389.0
574.231,5393.8
574.315,5339.6
574.398,5303.63
574.481,5251.13
574.565,5279.27
574.648,5330.5
574.731,5365.47
574.815,5360.33
574.898,5321.57
574.982,5429.5
575.065,5426.6
575.148,5331.03
575.232,5278.23
575.315,5370.9
575.398,5401.2
575.482,5441.4
575.565,5401.9
575.648,5394.57
575.732,5395.17
575.815,5366.9
575.898,5379.9
575.982,5373.2
576.065,5440.33
576.148,5480.23
576.232,5407.0
576.315,5435.1
576.398,5472.33
576.482,5477.37
576.565,5483.57
576.648,5478.67
576.732,5446.03
576.815,5485.2
576.898,5433.67
576.982,5476.13
577.065,5433.63
577.148,5385.3
577.232,5474.93
577.315,5504.53
577.398,5498.63
577.481,5480.5
577.565,5422.03
577.648,5412.6
577.731,5467.7
577.815,5473.6
577.898,5416.1
577.981,5507.07
578.065,5499.23
578.148,5453.23
578.231,5441.77
578.314,5471.93
578.398,5453.87
578.481,5439.53
578.564,5415.47
578.648,5435.3
578.731,5507.83
578.814,5526.77
578.897,5524.73
578.981,5551.17
579.064,5556.93
579.147,5568.13
579.23,5524.9
579.314,5498.2
579.397,5428.23
579.48,5435.0
579.563,5546.2
579.647,5589.27
579.73,5601.47
579.813,5618.03
579.896,5586.6
579.98,5564.67
580.063,5559.23
580.146,5571.77
580.229,5576.07
580.313,5585.4
580.396,5596.5
580.479,5664.27
580.562,5713.47
580.646,5705.93
580.729,5658.23
580.812,5630.73
580.895,5598.9
580.979,5598.0
581.062,5626.83
581.145,5641.13
581.228,5653.3
581.311,5617.73
581.395,5598.17
581.478,5590.1
581.561,5563.57
581.644,5583.6
581.728,5630.1
581.811,5562.5
581.894,5617.5
581.977,5622.33
582.06,5618.7
582.144,5566.73
582.227,5533.33
582.31,5576.8
582.393,5528.4
582.476,5486.77
582.56,5476.57
582.643,5424.97
582.726,5536.97
582.809,5585.5
582.892,5553.6
582.975,5510.17
583.059,5497.87
583.142,5461.5
583.225,5505.13
583.308,5532.77
583.391,5492.3
583.475,5456.7
583.558,5426.53
583.641,5432.47
583.724,5466.17
583.807,5459.1
583.89,5476.8
583.973,5422.3
584.057,5435.73
584.14,5484.83
584.223,5535.9
584.306,5481.2
584.389,5381.33
584.472,5415.03
584.556,5431.5
584.639,5448.7
584.722,5436.6
584.805,5413.03
584.888,5418.43
584.971,5411.47
585.054,5415.5
585.138,5408.07
585.221,5382.2
585.304,5375.8
585.387,5359.7
585.47,5363.37
585.553,5405.83
585.636,5469.97
585.719,5431.37
585.802,5359.23
585.886,5388.07
585.969,5382.7
586.052,5388.53
586.135,5366.4
586.218,5379.5
586.301,5399.47
586.384,5390.17
586.467,5354.83
586.55,5385.13
586.634,5422.0
586.717,5394.33
586.8,5404.13
586.883,5399.2
586.966,5434.07
587.049,5450.37
587.132,5412.47
587.215,5470.63
587.298,5466.5
587.381,5462.03
587.464,5479.03
587.548,5487.93
587.631,5443.63
587.714,5458.47
587.797,5421.27
587.88,5463.63
587.963,5515.6
588.046,5467.9
588.129,5425.0
588.212,5419.87
588.295,5446.37
588.378,5445.83
588.461,5470.67
588.544,5471.0
588.627,5472.23
588.71,5424.03
588.793,5379.93
588.876,5268.13
588.96,5324.63
589.043,5433.57
589.126,5446.57
589.209,5406.37
589.292,5385.13
589.375,5357.2
589.458,5358.23
589.541,5360.47
589.624,5384.67
589.707,5419.5
589.79,5428.03
589.873,5415.0
589.956,5358.37
590.039,5358.77
590.122,5399.63
590.205,5437.4
590.288,5426.5
590.371,5439.0
590.454,5381.8
590.537,5382.83
590.62,5401.17
590.703,5419.53
590.786,5395.73
590.869,5389.4
590.952,5407.13
591.035,5467.57
591.118,5443.3
591.201,5401.87
591.284,5425.3
591.367,5459.17
591.45,5434.73
591.533,5501.73
591.616,5439.77
591.699,5384.7
591.782,5433.7
591.865,5388.43
591.948,5379.4
592.031,5468.3
592.114,5412.13
592.197,5466.43
592.28,5454.8
592.363,5457.87
592.446,5442.37
592.529,5455.83
592.611,5467.17
592.694,5484.57
592.777,5486.63
592.86,5453.17
592.943,5431.0
593.026,5407.93
593.109,5388.67
593.192,5397.33
593.275,5407.57
593.358,5421.27
593.441,5396.7
593.524,5371.03
593.607,5447.73
593.69,5440.7
593.773,5406.3
593.856,5399.0
593.939,5391.43
594.021,5471.33
594.104,5467.2
594.187,5413.73
594.27,5392.9
594.353,5377.97
594.436,5436.37
594.519,5422.37
594.602,5395.3
594.685,5420.23
594.768,5415.5
594.851,5377.47
594.933,5376.27
595.016,5383.23
595.099,5449.0
595.182,5472.23
595.265,5460.2
595.348,5460.47
595.431,5482.97
595.514,5508.97
595.597,5524.6
595.68,5465.43
595.762,5415.23
595.845,5414.27
595.928,5416.97
596.011,5472.07
596.094,5520.5
596.177,5573.13
596.26,5543.07
596.342,5498.47
596.425,5405.6
596.508,5469.4
596.591,5448.2
596.674,5510.57
596.757,5498.97
596.84,5433.37
596.923,5432.97
597.005,5571.2
597.088,5552.23
597.171,5515.87
597.254,5483.3
597.337,5451.43
597.42,5481.37
597.502,5484.13
597.585,5482.7
597.668,5466.53
597.751,5420.27
597.834,5476.5
597.917,5463.43
597.999,5484.83
598.082,5500.53
598.165,5424.33
598.248,5455.3
598.331,5502.2
598.414,5509.8
598.496,5530.53
598.579,5441.2
598.662,5431.93
598.745,5476.33
598.828,5486.7
598.91,5496.2
598.993,5502.97
599.076,5484.4
599.159,5460.1
599.242,5518.17
599.324,5567.2
599.407,5521.77
599.49,5494.2
599.573,5487.3
599.656,5467.17
599.738,5444.7
599.821,5456.33
599.904,5485.0
599.987,5522.97
600.069,5534.67
600.152,5531.77
600.235,5501.47
600.318,5470.33
600.401,5527.87
600.483,5503.17
600.566,5483.73
600.649,5520.8
600.732,5527.4
600.814,5553.6
600.897,5474.83
600.98,5480.37
601.063,5438.13
601.145,5455.63
601.228,5521.13
601.311,5554.53
601.394,5466.37
601.476,5515.17
601.559,5549.9
601.642,5582.17
601.725,5519.4
601.807,5481.37
601.89,5466.47
601.973,5434.1
602.055,5482.23
602.138,5583.37
602.221,5563.6
602.304,5503.1
602.386,5456.67
602.469,5419.47
602.552,5420.77
602.635,5538.2
602.717,5658.67
602.8,5583.97
602.883,5505.43
602.965,5454.33
603.048,5523.97
603.131,5522.17
603.213,5507.4
603.296,5488.73
603.379,5539.93
603.462,5460.03
603.544,5455.97
603.627,5482.53
603.71,5548.9
603.792,5584.57
603.875,5521.97
603.958,5481.37
604.04,5504.4
604.123,5461.17
604.206,5463.07
604.288,5449.27
604.371,5469.07
604.454,5496.57
604.536,5488.83
604.619,5558.13
604.702,5538.43
604.784,5485.77
604.867,5610.47
604.95,5568.07
605.032,5461.67
605.115,5409.4
605.198,5461.2
605.28,5481.57
605.363,5492.33
605.446,5477.3
605.528,5521.27
605.611,5582.23
605.693,5520.03
605.776,5461.63
605.859,5534.03
605.941,5495.23
606.024,5499.8
606.107,5485.83
606.189,5471.47
606.272,5526.63
606.354,5592.87
606.437,5536.47
606.52,5479.8
606.602,5448.93
606.685,5475.83
606.767,5471.87
606.85,5496.27
606.933,5533.93
607.015,5551.6
607.098,5518.0
607.181,5487.43
607.263,5493.03
607.346,5460.0
607.428,5477.9
607.511,5488.77
607.593,5534.33
607.676,5512.43
607.759,5501.63
607.841,5536.1
607.924,5485.9
608.006,5488.47
608.089,5513.7
608.172,5511.73
608.254,5483.47
608.337,5449.4
608.419,5503.7
608.502,5504.17
608.584,5522.3
608.667,5501.97
608.749,5466.67
608.832,5433.23
608.915,5468.53
608.997,5492.87
609.08,5601.33
609.162,5552.27
609.245,5463.2
609.327,5485.23
609.41,5511.77
609.492,5473.93
609.575,5442.9
609.657,5509.43
609.74,5448.7
609.823,5477.5
609.905,5531.03
609.988,5523.93
610.07,5544.33
610.153,5490.5
610.235,5483.97
610.318,5472.3
610.4,5452.2
610.483,5535.33
610.565,5511.47
610.648,5494.33
610.73,5445.4
610.813,5504.93
610.895,5576.9
610.978,5559.53
611.06,5433.4
611.143,5416.13
611.225,5448.2
611.308,5478.5
611.39,5537.13
611.473,5574.67
611.555,5466.67
611.638,5398.77
611.72,5451.13
611.803,5477.47
611.885,5453.03
611.968,5495.7
612.05,5509.33
612.133,5459.47
612.215,5423.17
612.297,5478.93
612.38,5475.47
612.462,5425.9
612.545,5453.03
612.627,5450.4
612.71,5471.4
612.792,5502.13
612.875,5568.23
612.957,5571.3
613.04,5451.4
613.122,5402.53
613.204,5383.33
613.287,5429.07
613.369,5474.83
613.452,5462.37
613.534,5503.2
613.617,5486.5
613.699,5402.33
613.781,5421.77
613.864,5418.97
613.946,5397.7
614.029,5449.4
614.111,5462.67
614.194,5530.27
614.276,5502.8
614.358,5497.4
614.441,5532.6
614.523,5434.33
614.606,5410.43
614.688,5494.6
614.77,5498.17
614.853,5448.47
614.935,5472.07
615.018,5478.97
615.1,5481.3
615.182,5443.1
615.265,5454.4
615.347,5449.77
615.43,5454.17
615.512,5527.5
615.594,5518.47
615.677,5434.37
615.759,5396.9
615.841,5475.87
615.924,5480.3
616.006,5372.8
616.089,5424.07
616.171,5445.93
616.253,5438.23
616.336,5454.7
616.418,5431.73
616.5,5419.0
616.583,5375.2
616.665,5371.67
616.747,5406.4
616.83,5469.93
616.912,5424.0
616.994,5353.0
617.077,5416.13
617.159,5484.3
617.242,5469.07
617.324,5393.77
617.406,5398.7
617.489,5371.9
617.571,5422.0
617.653,5450.5
617.735,5506.17
617.818,5460.5
617.9,5432.8
617.982,5446.13
618.065,5393.5
618.147,5408.77
618.229,5440.17
618.312,5504.3
618.394,5468.7
618.476,5392.5
618.559,5429.6
618.641,5474.33
618.723,5398.9
618.805,5448.83
618.888,5419.1
618.97,5429.7
619.052,5407.93
619.135,5406.77
619.217,5431.07
619.299,5427.43
619.381,5489.87
619.464,5422.27
619.546,5351.3
619.628,5410.83
619.711,5376.77
619.793,5440.53
619.875,5415.9
619.957,5376.2
620.04,5487.87
620.122,5543.87
620.204,5456.6
620.286,5406.03
620.369,5360.13
620.451,5430.1
620.533,5520.67
620.615,5472.1
620.698,5428.27
620.78,5396.67
620.862,5426.53
620.944,5371.3
621.027,5342.07
621.109,5372.87
621.191,5386.43
621.273,5401.87
621.356,5408.47
621.438,5380.43
621.52,5292.13
621.602,5333.17
621.684,5400.27
621.767,5372.9
621.849,5434.93
621.931,5507.1
622.013,5429.9
622.095,5292.8
622.178,5329.07
622.26,5448.8
622.342,5390.43
622.424,5282.3
622.506,5273.13
622.589,5341.6
622.671,5427.33
622.753,5426.87
622.835,5446.7
622.917,5428.33
623.0,5409.53
623.082,5331.7
623.164,5313.1
623.246,5324.23
623.328,5352.03
623.41,5356.03
623.493,5377.8
623.575,5403.33
623.657,5391.8
623.739,5326.8
623.821,5359.1
623.903,5401.3
623.986,5434.1
624.068,5409.63
624.15,5414.9
624.232,5356.87
624.314,5304.87
624.396,5331.97
624.478,5343.53
624.561,5340.4
624.643,5292.63
624.725,5366.57
624.807,5426.17
624.889,5448.87
624.971,5335.4
625.053,5293.23
625.136,5347.33
625.218,5317.53
625.3,5304.37
625.382,5380.67
625.464,5362.3
625.546,5265.5
625.628,5320.37
625.71,5278.93
625.792,5286.03
625.875,5363.3
625.957,5319.43
626.039,5272.97
626.121,5261.77
626.203,5260.5
626.285,5279.3
626.367,5272.23
626.449,5324.0
626.531,5320.97
626.613,5316.8
626.695,5275.83
626.778,5207.03
626.86,5180.3
626.942,5194.27
627.024,5238.93
627.106,5304.0
627.188,5311.23
627.27,5272.93
627.352,5179.8
627.434,5224.37
627.516,5239.4
627.598,5321.7
627.68,5362.0
627.762,5283.77
627.844,5272.73
627.926,5271.27
628.008,5256.0
628.09,5228.2
628.172,5272.43
628.255,5239.87
628.337,5314.3
628.419,5342.77
628.501,5339.53
628.583,5309.1
628.665,5253.23
628.747,5242.8
628.829,5260.3
628.911,5271.97
628.993,5269.43
629.075,5353.3
629.157,5347.97
629.239,5343.83
629.321,5289.17
629.403,5329.97
629.485,5303.6
629.567,5230.37
629.649,5248.4
629.731,5202.57
629.813,5171.23
629.895,5162.43
629.977,5221.93
630.059,5253.87
630.141,5233.37
630.223,5287.97
630.305,5330.1
630.387,5329.0
630.469,5283.7
630.551,5291.8
630.633,5292.4
630.715,5263.87
630.797,5345.93
630.878,5343.1
630.96,5420.37
631.042,5497.2
631.124,5494.77
631.206,5441.33
631.288,5437.03
631.37,5401.63
631.452,5381.0
631.534,5316.33
631.616,5294.67
631.698,5284.2
631.78,5245.83
631.862,5227.93
631.944,5194.03
632.026,5190.8
632.108,5138.17
632.19,5173.07
632.272,5197.0
632.353,5190.7
632.435,5206.27
632.517,5224.5
632.599,5209.7
632.681,5249.03
632.763,5264.5
632.845,5222.17
632.927,5198.0
633.009,5260.67
633.091,5331.27
633.173,5315.07
633.254,5278.03
633.336,5255.97
633.418,5225.3
633.5,5231.37
633.582,5286.8
633.664,5263.47
633.746,5187.9
633.828,5200.13
633.91,5189.1
633.991,5129.47
634.073,5073.7
634.155,5064.13
634.237,5087.17
634.319,5092.3
634.401,5111.57
634.483,5149.63
634.564,5120.2
634.646,5080.97
634.728,5035.33
634.81,5089.23
634.892,5130.97
634.974,5186.5
635.056,5128.23
635.137,4964.7
635.219,4963.2
635.301,4992.7
635.383,4997.03
635.465,5060.67
635.547,5093.4
