nm,Intensity
528.65,1834.06
528.734,1834.53
528.819,1834.04
528.903,1834.57
528.987,1834.16
529.071,1834.14
529.155,1833.67
529.239,1834.27
529.324,1833.9
529.408,1834.43
529.492,1834.0
529.576,1834.79
529.66,1834.96
529.745,1834.6
529.829,1833.86
529.913,1835.09
529.997,1834.91
530.081,1834.14
530.165,1834.4
530.25,1834.54
530.334,1834.13
530.418,1834.64
530.502,1834.09
530.586,1834.34
530.67,1834.27
530.754,1834.66
530.839,1834.87
530.923,1834.81
531.007,1835.44
531.091,1834.89
531.175,1835.67
531.259,1835.91
531.344,1836.53
531.428,1838.34
531.512,1838.8
531.596,1842.61
531.68,1856.94
531.764,1915.39
531.848,2164.34
531.933,2737.3
532.017,3330.84
532.101,3496.46
532.185,3152.27
532.269,2380.19
532.353,1934.23
532.437,1845.13
532.521,1836.5
532.606,1835.44
532.69,1835.6
532.774,1834.51
532.858,1835.56
532.942,1835.31
533.026,1835.29
533.11,1835.39
533.194,1836.23
533.279,1835.13
533.363,1836.89
533.447,1840.67
533.531,1851.04
533.615,1883.34
533.699,1943.03
533.783,2036.96
533.867,2124.2
533.951,2184.36
534.036,2213.99
534.12,2238.97
534.204,2256.27
534.288,2230.43
534.372,2212.51
534.456,2201.67
534.54,2201.11
534.624,2201.64
534.708,2194.56
534.792,2176.56
534.877,2159.69
534.961,2139.93
535.045,2125.84
535.129,2115.53
535.213,2098.96
535.297,2090.97
535.381,2078.23
535.465,2069.39
535.549,2056.84
535.633,2048.0
535.717,2043.77
535.801,2034.33
535.886,2026.17
535.97,2025.59
536.054,2020.0
536.138,2018.4
536.222,2013.23
536.306,2012.13
536.39,2014.16
536.474,2012.77
536.558,2013.91
536.642,2013.96
536.726,2010.39
536.81,2014.26
536.894,2017.14
536.978,2015.34
537.062,2011.13
537.146,2009.4
537.231,2002.61
537.315,1999.74
537.399,2007.03
537.483,2014.1
537.567,2010.27
537.651,2012.3
537.735,2009.44
537.819,2006.54
537.903,2008.19
537.987,2001.7
538.071,2005.64
538.155,2007.93
538.239,2008.14
538.323,2008.31
538.407,2008.81
538.491,2011.09
538.575,2006.73
538.659,2004.89
538.743,2001.81
538.827,2002.77
538.911,1998.36
538.995,1999.74
539.079,1995.59
539.163,1995.14
539.247,1993.69
539.331,1991.53
539.415,1994.19
539.499,1993.56
539.583,1992.69
539.667,1991.41
539.751,1992.47
539.835,1991.47
539.919,1989.73
540.003,1987.26
540.087,1987.5
540.171,1990.31
540.255,1986.84
540.339,1990.17
540.423,1990.13
540.507,1987.7
540.591,1989.81
540.675,1988.54
540.759,1991.56
540.843,1994.7
540.927,1997.21
541.011,1999.24
541.095,1999.53
541.179,1996.66
541.263,2000.51
541.347,1999.67
541.431,2001.63
541.515,2002.8
541.599,2011.64
541.683,2007.56
541.767,2009.37
541.851,2009.57
541.935,2007.36
542.019,2009.71
542.103,2011.89
542.187,2011.2
542.271,2010.34
542.355,2009.0
542.439,2012.17
542.523,2013.64
542.607,2012.11
542.691,2011.56
542.775,2016.73
542.859,2027.44
542.943,2040.76
543.027,2046.79
543.111,2047.93
543.195,2038.39
543.279,2028.07
543.363,2011.83
543.446,2000.37
543.53,1999.81
543.614,2001.13
543.698,2000.69
543.782,2006.83
543.866,2002.44
543.95,1996.79
544.034,1997.0
544.118,1995.97
544.202,1999.44
544.286,1998.36
544.37,2004.47
544.454,2009.29
544.538,2013.03
544.622,2020.59
544.706,2027.86
544.789,2029.54
544.873,2023.19
544.957,2018.0
545.041,2011.19
545.125,2013.46
545.209,2011.69
545.293,2016.09
545.377,2014.36
545.461,2011.86
545.545,2004.74
545.629,1999.73
545.713,1993.57
545.796,1991.37
545.88,1993.34
545.964,1992.01
546.048,1992.07
546.132,1992.13
546.216,1994.31
546.3,1991.41
546.384,1992.44
546.468,1990.0
546.552,1993.54
546.635,1990.44
546.719,1989.63
546.803,1989.2
546.887,1991.96
546.971,1996.64
547.055,2003.21
547.139,2009.4
547.223,2011.16
547.306,2005.24
547.39,1995.24
547.474,1990.87
547.558,1987.03
547.642,1985.61
547.726,1983.36
547.81,1984.86
547.894,1981.71
547.977,1984.89
548.061,1986.86
548.145,1984.63
548.229,1988.03
548.313,1988.91
548.397,1984.33
548.481,1984.17
548.564,1987.6
548.648,1990.7
548.732,1987.9
548.816,1987.6
548.9,1988.2
548.984,1985.2
549.068,1984.96
549.151,1985.0
549.235,1983.24
549.319,1981.94
549.403,1983.74
549.487,1984.3
549.571,1982.4
549.655,1983.24
549.738,1983.93
549.822,1986.51
549.906,1980.56
549.99,1984.77
550.074,1990.4
550.158,1997.87
550.241,1998.94
550.325,1998.59
550.409,1993.61
550.493,1990.67
550.577,1986.76
550.66,1984.36
550.744,1985.3
550.828,1986.5
550.912,1984.9
550.996,1985.34
551.08,1986.3
551.163,1987.29
551.247,1984.43
551.331,1984.27
551.415,1983.6
551.499,1981.31
551.582,1984.3
551.666,1985.04
551.75,1983.73
551.834,1982.71
551.918,1986.11
552.001,1986.36
552.085,1983.67
552.169,1982.19
552.253,1985.21
552.337,1986.07
552.42,1979.24
552.504,1979.37
552.588,1979.01
552.672,1980.23
552.755,1981.61
552.839,1985.5
552.923,1984.06
553.007,1983.54
553.091,1984.41
553.174,1985.17
553.258,1982.61
553.342,1983.37
553.426,1981.06
553.509,1984.57
553.593,1989.67
553.677,1988.87
553.761,1986.39
553.844,1984.14
553.928,1988.67
554.012,1988.93
554.096,1990.97
554.179,1992.53
554.263,1994.93
554.347,1996.29
554.431,1997.71
554.514,2000.87
554.598,1994.07
554.682,1993.23
554.766,1994.44
554.849,1995.04
554.933,1999.94
555.017,1998.24
555.101,2000.0
555.184,2000.11
555.268,2001.11
555.352,2003.54
555.436,2007.91
555.519,2006.56
555.603,2007.13
555.687,2008.0
555.771,2006.31
555.854,2005.8
555.938,2005.07
556.022,2003.26
556.105,1998.53
556.189,1995.2
556.273,1993.6
556.357,1994.29
556.44,1999.49
556.524,2001.2
556.608,2002.99
556.691,1997.91
556.775,1995.59
556.859,1998.93
556.943,2001.16
557.026,2002.04
557.11,2007.09
557.194,2003.11
557.277,2000.43
557.361,2002.6
557.445,1998.86
557.528,2002.16
557.612,2005.14
557.696,2001.49
557.779,2003.2
557.863,2005.91
557.947,2004.19
558.031,2005.43
558.114,2005.04
558.198,2008.44
558.282,2009.33
558.365,2012.94
558.449,2013.0
558.533,2014.07
558.616,2012.91
558.7,2024.79
558.784,2023.26
558.867,2020.81
558.951,2021.26
559.035,2019.31
559.118,2023.7
559.202,2014.56
559.286,2013.43
559.369,2018.94
559.453,2018.01
559.537,2019.17
559.62,2016.44
559.704,2015.31
559.788,2014.29
559.871,2011.13
559.955,2008.59
560.038,2009.8
560.122,2014.87
560.206,2018.11
560.289,2014.4
560.373,2018.36
560.457,2014.57
560.54,2015.6
560.624,2019.47
560.708,2025.49
560.791,2028.23
560.875,2032.43
560.958,2031.04
561.042,2033.07
561.126,2035.46
561.209,2035.49
561.293,2035.51
561.377,2034.23
561.46,2038.04
561.544,2040.9
561.627,2050.84
561.711,2065.74
561.795,2092.07
561.878,2125.39
561.962,2165.73
562.045,2201.24
562.129,2209.59
562.213,2171.46
562.296,2110.97
562.38,2069.69
562.463,2053.17
562.547,2049.04
562.631,2047.69
562.714,2060.59
562.798,2073.87
562.881,2087.79
562.965,2099.33
563.049,2096.84
563.132,2092.91
563.216,2096.13
563.299,2076.07
563.383,2065.07
563.467,2064.43
563.55,2064.79
563.634,2069.8
563.717,2074.27
563.801,2077.99
563.884,2075.97
563.968,2078.09
564.052,2080.99
564.135,2082.0
564.219,2082.66
564.302,2081.3
564.386,2086.54
564.469,2095.26
564.553,2105.37
564.636,2106.09
564.72,2115.3
564.804,2124.4
564.887,2144.5
564.971,2165.59
565.054,2182.01
565.138,2184.14
565.221,2167.11
565.305,2145.83
565.388,2127.34
565.472,2124.69
565.556,2122.86
565.639,2134.46
565.723,2142.3
565.806,2138.36
565.89,2142.86
565.973,2145.24
566.057,2135.31
566.14,2124.21
566.224,2113.39
566.307,2099.63
566.391,2096.17
566.474,2092.71
566.558,2089.04
566.641,2093.76
566.725,2102.4
566.808,2107.5
566.892,2115.81
566.975,2110.27
567.059,2109.36
567.142,2098.06
567.226,2087.81
567.309,2092.17
567.393,2086.77
567.476,2092.13
567.56,2086.47
567.643,2086.4
567.727,2095.31
567.81,2097.16
567.894,2096.04
567.977,2099.94
568.061,2101.46
568.144,2093.43
568.228,2094.86
568.311,2102.19
568.395,2111.43
568.478,2108.01
568.562,2100.13
568.645,2093.87
568.729,2091.06
568.812,2087.83
568.896,2085.54
568.979,2083.64
569.063,2083.41
569.146,2083.46
569.23,2081.11
569.313,2083.06
569.396,2083.29
569.48,2092.31
569.563,2089.64
569.647,2086.3
569.73,2083.81
569.814,2085.96
569.897,2088.37
569.981,2092.67
570.064,2093.04
570.148,2095.69
570.231,2093.09
570.314,2094.59
570.398,2094.19
570.481,2095.17
570.565,2096.23
570.648,2097.83
570.732,2096.57
570.815,2098.04
570.898,2091.7
570.982,2101.66
571.065,2100.69
571.149,2104.3
571.232,2106.56
571.316,2111.4
571.399,2119.3
571.482,2114.61
571.566,2110.96
571.649,2115.36
571.733,2116.94
571.816,2116.21
571.9,2114.24
571.983,2116.7
572.066,2117.84
572.15,2123.57
572.233,2126.01
572.317,2133.41
572.4,2137.8
572.483,2136.34
572.567,2134.73
572.65,2133.84
572.734,2145.21
572.817,2142.07
572.9,2141.51
572.984,2146.6
573.067,2147.43
573.15,2137.76
573.234,2129.64
573.317,2125.99
573.401,2124.6
573.484,2124.0
573.567,2124.91
573.651,2129.24
573.734,2132.33
573.818,2135.81
573.901,2137.71
573.984,2143.9
574.068,2143.34
574.151,2150.29
574.234,2151.9
574.318,2154.74
574.401,2155.9
574.484,2145.63
574.568,2136.11
574.651,2122.87
574.734,2128.37
574.818,2126.31
574.901,2120.37
574.985,2121.39
575.068,2127.53
575.151,2123.56
575.235,2121.51
575.318,2120.61
575.401,2117.81
575.485,2120.97
575.568,2127.29
575.651,2123.57
575.735,2119.76
575.818,2124.69
575.901,2123.39
575.985,2124.81
576.068,2122.9
576.151,2130.11
576.235,2133.29
576.318,2138.91
576.401,2136.47
576.484,2137.73
576.568,2141.6
576.651,2147.79
576.734,2139.07
576.818,2140.09
576.901,2142.14
576.984,2133.64
577.068,2128.33
577.151,2125.81
577.234,2120.36
577.318,2125.07
577.401,2122.7
577.484,2127.47
577.567,2126.86
577.651,2122.99
577.734,2119.97
577.817,2121.77
577.901,2115.24
577.984,2114.26
578.067,2111.0
578.15,2104.83
578.234,2101.2
578.317,2106.3
578.4,2107.63
578.484,2107.49
578.567,2104.56
578.65,2106.81
578.733,2108.13
578.817,2110.84
578.9,2108.47
578.983,2106.81
579.066,2112.96
579.15,2108.13
579.233,2108.79
579.316,2111.16
579.399,2113.57
579.483,2113.8
579.566,2107.19
579.649,2109.21
579.732,2110.84
579.816,2112.23
579.899,2117.33
579.982,2118.2
580.065,2119.09
580.149,2116.56
580.232,2120.79
580.315,2122.66
580.398,2115.5
580.482,2116.41
580.565,2126.79
580.648,2125.04
580.731,2129.31
580.815,2125.89
580.898,2130.51
580.981,2133.09
581.064,2141.03
581.147,2143.9
581.231,2147.39
581.314,2152.2
581.397,2154.97
581.48,2166.83
581.563,2182.04
581.647,2204.27
581.73,2203.3
581.813,2183.83
581.896,2181.13
581.979,2165.89
582.063,2149.47
582.146,2138.81
582.229,2142.2
582.312,2141.83
582.395,2134.81
582.479,2129.59
582.562,2126.67
582.645,2124.43
582.728,2131.53
582.811,2127.93
582.895,2127.46
582.978,2126.54
583.061,2121.34
583.144,2121.07
583.227,2129.17
583.31,2127.56
583.394,2127.56
583.477,2127.63
583.56,2121.29
583.643,2126.14
583.726,2128.16
583.809,2127.61
583.893,2127.59
583.976,2131.04
584.059,2126.0
584.142,2126.39
584.225,2124.61
584.308,2124.23
584.391,2126.73
584.475,2130.34
584.558,2128.56
584.641,2129.61
584.724,2127.1
584.807,2123.47
584.89,2125.53
584.973,2123.0
585.057,2120.91
585.14,2118.91
585.223,2121.7
585.306,2128.33
585.389,2131.46
585.472,2125.66
585.555,2123.43
585.638,2120.21
585.722,2119.56
585.805,2127.71
585.888,2122.89
585.971,2127.5
586.054,2126.41
586.137,2130.3
586.22,2119.91
586.303,2125.53
586.386,2129.33
586.47,2123.27
586.553,2127.24
586.636,2134.43
586.719,2132.93
586.802,2127.36
586.885,2129.17
586.968,2123.04
587.051,2124.34
587.134,2126.53
587.217,2128.31
587.3,2127.96
587.384,2134.64
587.467,2129.96
587.55,2138.13
587.633,2130.56
587.716,2137.36
587.799,2130.23
587.882,2131.44
587.965,2138.41
588.048,2139.47
588.131,2130.54
588.214,2127.59
588.297,2136.4
588.38,2137.4
588.463,2139.74
588.546,2139.29
588.63,2130.27
588.713,2127.77
588.796,2131.94
588.879,2132.86
588.962,2134.47
589.045,2131.84
589.128,2131.0
589.211,2131.73
589.294,2130.64
589.377,2130.41
589.46,2134.27
589.543,2133.71
589.626,2128.69
589.709,2126.71
589.792,2127.27
589.875,2131.54
589.958,2134.0
590.041,2132.39
590.124,2136.86
590.207,2134.4
590.29,2136.83
590.373,2138.1
590.456,2137.46
590.539,2139.91
590.622,2136.7
590.705,2127.84
590.788,2133.54
590.871,2135.89
590.954,2140.47
591.037,2137.83
591.12,2138.76
591.203,2143.8
591.286,2137.27
591.369,2140.8
591.452,2142.61
591.535,2138.69
591.618,2141.81
591.701,2143.07
591.784,2138.74
591.867,2144.29
591.95,2140.11
592.033,2141.84
592.116,2145.44
592.199,2145.81
592.282,2151.1
592.365,2152.5
592.448,2151.7
592.531,2149.29
592.614,2140.83
592.697,2141.13
592.78,2148.43
592.863,2154.76
592.946,2151.43
593.029,2154.16
593.112,2153.39
593.195,2148.21
593.278,2143.11
593.361,2145.03
593.443,2148.93
593.526,2151.31
593.609,2151.33
593.692,2151.74
593.775,2152.93
593.858,2151.39
593.941,2153.47
594.024,2149.49
594.107,2149.49
594.19,2150.09
594.273,2157.16
594.356,2157.86
594.439,2159.36
594.522,2158.53
594.604,2155.8
594.687,2150.67
594.77,2150.11
594.853,2161.11
594.936,2162.61
595.019,2159.34
595.102,2161.5
595.185,2165.56
595.268,2169.29
595.351,2163.31
595.434,2161.09
595.516,2159.07
595.599,2171.37
595.682,2171.76
595.765,2164.31
595.848,2174.47
595.931,2168.6
596.014,2161.51
596.097,2162.61
596.18,2167.39
596.262,2172.66
596.345,2174.19
596.428,2176.21
596.511,2174.83
596.594,2176.63
596.677,2171.46
596.76,2173.54
596.843,2184.54
596.925,2181.73
597.008,2177.8
597.091,2176.0
597.174,2173.67
597.257,2176.41
597.34,2177.91
597.423,2181.89
597.505,2183.79
597.588,2186.09
597.671,2183.44
597.754,2182.2
597.837,2182.63
597.92,2188.24
598.002,2191.14
598.085,2194.09
598.168,2190.17
598.251,2190.86
598.334,2182.61
598.417,2186.64
598.499,2187.11
598.582,2192.01
598.665,2195.34
598.748,2191.83
598.831,2195.19
598.914,2194.57
598.996,2203.49
599.079,2191.83
599.162,2190.67
599.245,2197.67
599.328,2200.43
599.41,2196.24
599.493,2201.77
599.576,2202.0
599.659,2207.29
599.742,2200.84
599.824,2200.56
599.907,2208.39
599.99,2213.93
600.073,2208.26
600.156,2207.36
600.238,2211.7
600.321,2216.43
600.404,2217.94
600.487,2218.26
600.57,2218.26
600.652,2214.33
600.735,2216.66
600.818,2219.69
600.901,2221.01
600.983,2223.91
601.066,2225.6
601.149,2222.07
601.232,2223.66
601.314,2216.01
601.397,2224.6
601.48,2218.81
601.563,2214.84
601.645,2221.61
601.728,2225.14
601.811,2221.56
601.894,2229.59
601.976,2231.31
602.059,2229.13
602.142,2232.97
602.225,2228.34
602.307,2232.07
602.39,2232.17
602.473,2237.17
602.556,2231.39
602.638,2224.99
602.721,2235.97
602.804,2238.57
602.887,2234.97
602.969,2247.43
603.052,2244.87
603.135,2240.41
603.217,2241.57
603.3,2237.84
603.383,2239.6
603.466,2239.8
603.548,2245.27
603.631,2248.8
603.714,2252.83
603.796,2253.34
603.879,2243.09
603.962,2253.16
604.045,2251.73
604.127,2243.27
604.21,2252.5
604.293,2250.59
604.375,2252.46
604.458,2251.67
604.541,2254.14
604.623,2258.44
604.706,2253.19
604.789,2245.09
604.871,2253.69
604.954,2262.21
605.037,2257.43
605.119,2249.76
605.202,2262.43
605.285,2252.23
605.367,2264.8
605.45,2262.5
605.533,2263.5
605.615,2265.0
605.698,2262.46
605.781,2261.01
605.863,2253.99
605.946,2258.81
606.029,2273.09
606.111,2279.83
606.194,2270.2
606.277,2269.57
606.359,2269.29
606.442,2272.19
606.524,2279.1
606.607,2288.86
606.69,2280.14
606.772,2278.47
606.855,2271.99
606.938,2279.21
607.02,2272.5
607.103,2274.44
607.185,2275.79
607.268,2281.76
607.351,2284.46
607.433,2288.0
607.516,2284.11
607.599,2275.57
607.681,2276.33
607.764,2290.17
607.846,2289.29
607.929,2283.79
608.012,2286.61
608.094,2290.24
608.177,2291.47
608.259,2281.16
608.342,2283.59
608.425,2297.86
608.507,2298.71
608.59,2301.16
608.672,2303.11
608.755,2304.66
608.837,2313.66
608.92,2287.41
609.003,2288.0
609.085,2287.1
609.168,2299.27
609.25,2314.6
609.333,2313.54
609.415,2317.94
609.498,2308.91
609.581,2295.84
609.663,2302.09
609.746,2300.77
609.828,2311.1
609.911,2304.19
609.993,2308.23
610.076,2318.13
610.158,2309.76
610.241,2323.37
610.324,2326.34
610.406,2326.31
610.489,2312.27
610.571,2320.73
610.654,2320.59
610.736,2328.39
610.819,2336.97
610.901,2335.9
610.984,2323.41
611.066,2312.24
611.149,2313.94
611.231,2321.64
611.314,2327.11
611.396,2339.89
611.479,2330.76
611.561,2333.79
611.644,2329.79
611.727,2317.66
611.809,2331.93
611.892,2342.83
611.974,2352.79
612.057,2340.0
612.139,2337.74
612.222,2323.53
612.304,2338.54
612.386,2342.0
612.469,2343.2
612.551,2339.69
612.634,2339.47
612.716,2342.0
612.799,2338.59
612.881,2348.0
612.964,2332.99
613.046,2338.3
613.129,2343.21
613.211,2352.31
613.294,2360.36
613.376,2362.07
613.459,2352.19
613.541,2353.77
613.624,2345.51
613.706,2355.24
613.789,2351.09
613.871,2341.39
613.953,2355.7
614.036,2366.09
614.118,2361.71
614.201,2359.21
614.283,2367.4
614.366,2366.56
614.448,2359.66
614.531,2361.0
614.613,2370.11
614.695,2378.74
614.778,2376.41
614.86,2366.64
614.943,2362.26
615.025,2357.61
615.108,2368.69
615.19,2360.9
615.272,2361.93
615.355,2371.06
615.437,2384.27
615.52,2387.57
615.602,2378.6
615.684,2382.6
615.767,2385.9
615.849,2384.96
615.932,2376.27
616.014,2384.66
616.097,2376.9
616.179,2375.27
616.261,2383.27
616.344,2389.74
616.426,2382.01
616.508,2385.43
616.591,2389.2
616.673,2390.17
616.756,2387.79
616.838,2388.49
616.92,2386.36
617.003,2375.87
617.085,2386.24
617.168,2380.19
617.25,2387.53
617.332,2401.31
617.415,2400.06
617.497,2383.99
617.579,2387.0
617.662,2404.31
617.744,2413.33
617.826,2398.8
617.909,2396.6
617.991,2395.11
618.073,2413.93
618.156,2415.13
618.238,2414.03
618.32,2410.67
618.403,2397.87
618.485,2405.13
618.567,2401.56
618.65,2402.14
618.732,2397.87
618.814,2391.63
618.897,2398.81
618.979,2417.56
619.061,2420.36
619.144,2413.94
619.226,2415.59
619.308,2419.0
619.391,2410.3
619.473,2408.89
619.555,2409.23
619.638,2406.94
619.72,2418.63
619.802,2416.46
619.885,2413.0
619.967,2406.19
620.049,2413.2
620.131,2413.8
620.214,2418.51
620.296,2432.41
620.378,2445.29
620.461,2439.27
620.543,2435.7
620.625,2434.9
620.707,2428.1
620.79,2408.89
620.872,2416.49
620.954,2428.77
621.037,2432.2
621.119,2439.2
621.201,2431.04
621.283,2423.39
621.366,2430.36
621.448,2434.07
621.53,2426.1
621.612,2432.5
621.695,2443.93
621.777,2449.63
621.859,2442.94
621.941,2440.84
622.024,2432.34
622.106,2428.37
622.188,2422.74
622.27,2441.71
622.353,2453.36
622.435,2446.84
622.517,2438.47
622.599,2435.7
622.682,2446.5
622.764,2462.41
622.846,2462.06
622.928,2443.71
623.01,2447.2
623.093,2466.34
623.175,2458.39
623.257,2452.73
623.339,2445.69
623.422,2450.96
623.504,2442.29
623.586,2437.19
623.668,2449.63
623.75,2452.76
623.833,2448.76
623.915,2455.34
623.997,2466.76
624.079,2456.21
624.161,2458.1
624.244,2464.61
624.326,2455.61
624.408,2467.47
624.49,2470.24
624.572,2456.67
624.654,2453.24
624.737,2467.01
624.819,2460.36
624.901,2455.57
624.983,2471.67
625.065,2468.54
625.147,2483.87
625.23,2476.74
625.312,2471.54
625.394,2481.47
625.476,2461.26
625.558,2466.97
625.64,2481.66
625.723,2488.81
625.805,2473.96
625.887,2474.6
625.969,2495.9
626.051,2477.06
626.133,2480.41
626.215,2496.86
626.298,2500.39
626.38,2484.33
626.462,2493.57
626.544,2513.27
626.626,2518.13
626.708,2530.27
626.79,2514.96
626.872,2524.34
626.955,2521.06
627.037,2520.29
627.119,2549.8
627.201,2560.09
627.283,2572.44
627.365,2587.91
627.447,2583.4
627.529,2580.93
627.611,2572.81
627.693,2584.96
627.776,2584.17
627.858,2594.16
627.94,2607.3
628.022,2618.87
628.104,2630.89
628.186,2620.7
628.268,2626.47
628.35,2632.9
628.432,2642.09
628.514,2663.61
628.596,2672.29
628.678,2668.86
628.761,2685.47
628.843,2696.93
628.925,2703.67
629.007,2715.06
629.089,2707.13
629.171,2695.77
629.253,2689.14
629.335,2708.16
629.417,2728.04
629.499,2728.91
629.581,2726.91
629.663,2699.96
629.745,2662.24
629.827,2660.01
629.909,2660.44
629.991,2654.44
630.073,2653.29
630.155,2650.41
630.237,2654.21
630.319,2647.77
630.401,2634.26
630.483,2633.11
630.565,2629.71
630.647,2635.49
630.73,2638.19
630.812,2610.23
630.894,2603.69
630.976,2602.81
631.058,2632.7
631.14,2613.5
631.222,2585.61
631.304,2593.99
631.386,2587.7
631.468,2585.27
631.55,2580.36
631.632,2601.64
631.714,2616.8
631.796,2595.86
631.877,2585.07
631.959,2585.57
632.041,2575.97
632.123,2572.99
632.205,2588.57
632.287,2575.81
632.369,2580.74
632.451,2575.36
632.533,2564.76
632.615,2561.57
632.697,2562.96
632.779,2575.81
632.861,2563.5
632.943,2550.8
633.025,2550.21
633.107,2563.8
633.189,2566.64
633.271,2563.63
633.353,2562.89
633.435,2556.7
633.517,2567.26
633.599,2556.27
633.681,2570.83
633.763,2581.23
633.844,2578.6
633.926,2564.0
634.008,2548.17
