nm,Intensity
528.637,1840.0
528.722,1837.6
528.806,1837.3
528.89,1837.8
528.974,1839.4
529.058,1840.0
529.143,1840.5
529.227,1838.2
529.311,1839.3
529.395,1839.7
529.48,1837.8
529.564,1839.8
529.648,1838.2
529.732,1839.5
529.816,1840.3
529.901,1838.8
529.985,1837.5
530.069,1836.7
530.153,1840.8
530.238,1840.3
530.322,1838.7
530.406,1839.9
530.49,1839.7
530.574,1837.9
530.659,1839.8
530.743,1839.2
530.827,1839.0
530.911,1841.3
530.995,1840.1
531.08,1842.0
531.164,1842.1
531.248,1843.0
531.332,1844.3
531.416,1846.7
531.5,1846.4
531.585,1854.3
531.669,1881.7
531.753,1994.5
531.837,2395.5
531.921,3134.4
532.006,4270.3
532.09,4504.0
532.174,3970.4
532.258,2901.8
532.342,2019.2
532.426,1858.3
532.511,1846.9
532.595,1844.6
532.679,1846.4
532.763,1844.2
532.847,1847.5
532.931,1848.3
533.016,1851.8
533.1,1856.2
533.184,1861.9
533.268,1870.0
533.352,1902.7
533.436,2005.7
533.521,2320.7
533.605,3185.4
533.689,4717.9
533.773,6588.8
533.857,8434.2
533.941,9625.7
534.025,10300.2
534.11,10233.5
534.194,9895.6
534.278,9617.3
534.362,9271.4
534.446,8753.2
534.53,8333.0
534.614,8291.6
534.699,8037.1
534.783,7588.4
534.867,7241.7
534.951,6869.1
535.035,6531.1
535.119,6216.8
535.203,6066.5
535.287,5740.6
535.372,5483.7
535.456,5153.4
535.54,4873.5
535.624,4666.5
535.708,4370.9
535.792,4188.0
535.876,4023.1
535.96,3911.7
536.045,3746.0
536.129,3547.5
536.213,3500.9
536.297,3424.7
536.381,3379.9
536.465,3298.3
536.549,3241.8
536.633,3213.3
536.717,3150.1
536.801,3126.1
536.886,3111.5
536.97,3101.7
537.054,3071.2
537.138,3056.0
537.222,3039.0
537.306,3036.2
537.39,2986.3
537.474,2970.0
537.558,2945.7
537.642,2939.5
537.726,2946.1
537.811,2948.8
537.895,2951.4
537.979,2914.1
538.063,2928.5
538.147,2967.0
538.231,2985.3
538.315,3015.5
538.399,2989.6
538.483,2983.7
538.567,2984.1
538.651,2967.3
538.735,2942.6
538.819,2931.8
538.903,2932.1
538.987,2964.8
539.072,2975.2
539.156,2996.3
539.24,2973.2
539.324,3015.2
539.408,3069.8
539.492,3112.4
539.576,3155.3
539.66,3197.1
539.744,3205.7
539.828,3212.0
539.912,3194.0
539.996,3170.6
540.08,3098.9
540.164,3044.4
540.248,2988.9
540.332,2945.1
540.416,2870.0
540.5,2857.5
540.584,2825.7
540.668,2804.5
540.752,2800.9
540.836,2757.6
540.92,2751.9
541.004,2731.6
541.088,2729.0
541.172,2699.9
541.256,2684.6
541.34,2677.0
541.425,2691.9
541.509,2708.4
541.593,2714.3
541.677,2708.5
541.761,2697.7
541.845,2698.5
541.929,2709.0
542.013,2705.3
542.097,2686.9
542.181,2711.5
542.265,2713.0
542.349,2695.0
542.433,2693.0
542.517,2681.7
542.601,2700.5
542.685,2701.2
542.769,2723.1
542.853,2699.6
542.937,2679.9
543.021,2725.0
543.104,2704.0
543.188,2719.9
543.272,2723.7
543.356,2703.1
543.44,2690.0
543.524,2686.4
543.608,2732.4
543.692,2759.6
543.776,2766.7
543.86,2780.0
543.944,2757.3
544.028,2767.4
544.112,2827.0
544.196,2778.9
544.28,2764.7
544.364,2760.4
544.448,2788.7
544.532,2813.6
544.616,2797.0
544.7,2788.7
544.784,2787.5
544.868,2795.6
544.952,2773.7
545.036,2781.5
545.12,2778.5
545.204,2802.3
545.288,2805.0
545.371,2811.8
545.455,2808.0
545.539,2822.3
545.623,2835.2
545.707,2837.2
545.791,2837.3
545.875,2850.5
545.959,2848.8
546.043,2853.2
546.127,2870.3
546.211,2837.5
546.295,2837.0
546.379,2848.6
546.463,2844.8
546.547,2815.2
546.63,2829.5
546.714,2856.6
546.798,2849.3
546.882,2848.5
546.966,2871.5
547.05,2842.7
547.134,2842.2
547.218,2852.3
547.302,2830.9
547.386,2862.6
547.47,2876.0
547.553,2872.3
547.637,2842.1
547.721,2840.3
547.805,2849.2
547.889,2868.2
547.973,2879.4
548.057,2867.3
548.141,2877.6
548.225,2898.6
548.308,2902.7
548.392,2913.7
548.476,2881.7
548.56,2922.2
548.644,2898.3
548.728,2929.5
548.812,2905.1
548.896,2902.2
548.98,2895.4
549.063,2894.6
549.147,2874.8
549.231,2885.9
549.315,2904.7
549.399,2924.6
549.483,2932.0
549.567,2950.2
549.65,2913.8
549.734,2894.7
549.818,2932.1
549.902,2962.2
549.986,2997.9
550.07,2989.8
550.154,2954.0
550.237,3011.3
550.321,3165.1
550.405,3441.3
550.489,3896.2
550.573,4365.1
550.657,4483.7
550.741,4184.7
550.824,3682.5
550.908,3300.9
550.992,3120.5
551.076,3079.7
551.16,3055.7
551.244,3033.3
551.327,3039.6
551.411,3048.9
551.495,3090.9
551.579,3094.1
551.663,3072.7
551.747,3062.3
551.83,3065.6
551.914,3069.2
551.998,3051.8
552.082,3034.6
552.166,3090.5
552.249,3073.5
552.333,3122.1
552.417,3121.9
552.501,3148.4
552.585,3272.6
552.668,3454.4
552.752,3568.3
552.836,3644.4
552.92,3564.6
553.004,3418.8
553.087,3260.8
553.171,3165.6
553.255,3132.4
553.339,3117.4
553.423,3095.7
553.506,3099.1
553.59,3130.4
553.674,3131.1
553.758,3136.0
553.842,3174.9
553.925,3152.3
554.009,3144.1
554.093,3143.6
554.177,3150.8
554.26,3150.7
554.344,3187.3
554.428,3194.8
554.512,3177.8
554.596,3148.8
554.679,3201.9
554.763,3192.2
554.847,3197.0
554.931,3307.3
555.014,3271.4
555.098,3260.0
555.182,3308.0
555.266,3381.5
555.349,3497.8
555.433,3645.7
555.517,3755.4
555.601,3843.7
555.684,3903.9
555.768,3904.2
555.852,3851.7
555.936,3817.5
556.019,3805.7
556.103,3841.1
556.187,3856.8
556.271,3906.8
556.354,3982.3
556.438,3979.1
556.522,3948.0
556.605,3921.9
556.689,3960.3
556.773,4015.5
556.857,4045.2
556.94,4096.0
557.024,4249.5
557.108,4337.9
557.192,4628.5
557.275,4976.9
557.359,5258.0
557.443,5445.5
557.526,5492.3
557.61,5545.7
557.694,5249.7
557.778,4835.2
557.861,4464.6
557.945,4303.8
558.029,4231.2
558.112,4176.5
558.196,4198.1
558.28,4196.7
558.363,4198.5
558.447,4183.0
558.531,4130.4
558.614,4086.4
558.698,4058.3
558.782,4035.9
558.866,3972.2
558.949,3840.1
559.033,3809.5
559.117,3712.6
559.2,3604.0
559.284,3550.6
559.368,3527.7
559.451,3519.4
559.535,3539.4
559.619,3541.4
559.702,3516.6
559.786,3486.1
559.87,3492.8
559.953,3455.9
560.037,3513.9
560.121,3571.8
560.204,3512.1
560.288,3509.0
560.372,3492.5
560.455,3496.7
560.539,3524.9
560.622,3524.0
560.706,3573.8
560.79,3605.8
560.873,3539.8
560.957,3557.2
561.041,3595.3
561.124,3564.3
561.208,3638.6
561.292,3622.4
561.375,3646.0
561.459,3672.4
561.543,3698.5
561.626,3792.2
561.71,3781.8
561.793,3857.0
561.877,3921.9
561.961,4064.9
562.044,4174.2
562.128,4278.0
562.211,4441.4
562.295,4450.9
562.379,4437.1
562.462,4430.8
562.546,4370.1
562.63,4268.3
562.713,4141.4
562.797,4101.1
562.88,4072.5
562.964,4010.4
563.048,3995.9
563.131,3978.3
563.215,3962.1
563.298,3995.5
563.382,3958.9
563.466,3914.2
563.549,3897.9
563.633,3888.6
563.716,3893.5
563.8,3841.2
563.883,3832.4
563.967,3837.4
564.051,3814.1
564.134,3821.1
564.218,3882.8
564.301,3943.4
564.385,3960.5
564.468,3956.5
564.552,4008.2
564.636,4053.3
564.719,4145.4
564.803,4261.5
564.886,4386.4
564.97,4468.8
565.053,4619.4
565.137,4629.1
565.221,4782.2
565.304,4925.9
565.388,5000.2
565.471,5073.3
565.555,5201.5
565.638,5264.5
565.722,5282.1
565.805,5268.5
565.889,5285.5
565.972,5180.0
566.056,5020.8
566.14,4810.5
566.223,4676.3
566.307,4569.2
566.39,4430.7
566.474,4302.3
566.557,4151.4
566.641,4132.2
566.724,4103.9
566.808,4024.0
566.891,4047.6
566.975,4081.8
567.058,4100.1
567.142,4065.0
567.225,4137.2
567.309,4225.2
567.392,4401.5
567.476,4640.0
567.559,4707.9
567.643,4811.5
567.726,4827.2
567.81,4652.5
567.893,4532.4
567.977,4333.0
568.06,4223.3
568.144,4192.3
568.227,4203.0
568.311,4118.2
568.394,4053.9
568.478,4054.1
568.561,4085.1
568.645,4092.9
568.728,4073.2
568.812,4022.8
568.895,4057.4
568.979,4101.6
569.062,4145.5
569.146,4119.6
569.229,4086.6
569.313,4177.3
569.396,4191.3
569.48,4189.8
569.563,4236.2
569.646,4316.7
569.73,4385.9
569.813,4466.4
569.897,4499.8
569.98,4494.2
570.064,4562.6
570.147,4605.7
570.231,4753.1
570.314,4884.9
570.398,5072.5
570.481,5307.5
570.564,5482.2
570.648,5801.2
570.731,6013.1
570.815,6125.2
570.898,6430.9
570.982,6633.8
571.065,6808.2
571.148,7236.3
571.232,7493.7
571.315,7502.3
571.399,7313.8
571.482,7110.1
571.566,6650.2
571.649,6265.1
571.732,6067.0
571.816,5893.2
571.899,5799.5
571.983,5607.3
572.066,5441.6
572.149,5238.5
572.233,5050.7
572.316,4922.7
572.4,4752.4
572.483,4650.6
572.566,4575.4
572.65,4527.5
572.733,4502.4
572.817,4455.6
572.9,4444.3
572.983,4433.8
573.067,4404.1
573.15,4430.2
573.234,4406.8
573.317,4359.3
573.4,4392.1
573.484,4388.7
573.567,4389.8
573.651,4446.9
573.734,4439.0
573.817,4581.4
573.901,4643.4
573.984,4706.8
574.067,4670.7
574.151,4618.7
574.234,4592.5
574.317,4583.0
574.401,4532.7
574.484,4525.2
574.568,4540.0
574.651,4481.5
574.734,4498.8
574.818,4505.7
574.901,4533.4
574.984,4680.5
575.068,4789.8
575.151,4843.7
575.234,4939.5
575.318,4998.2
575.401,4980.7
575.484,4865.6
575.568,4721.8
575.651,4661.5
575.734,4566.2
575.818,4588.8
575.901,4658.6
575.984,4733.1
576.068,4722.1
576.151,4773.1
576.234,4890.9
576.318,4994.1
576.401,5069.9
576.484,5055.7
576.568,5022.2
576.651,5025.9
576.734,4971.1
576.817,5073.0
576.901,5027.3
576.984,4975.2
577.067,4852.4
577.151,4686.8
577.234,4662.7
577.317,4681.9
577.401,4709.9
577.484,4691.6
577.567,4632.5
577.65,4544.7
577.734,4503.6
577.817,4503.4
577.9,4525.5
577.984,4547.6
578.067,4530.1
578.15,4516.3
578.233,4556.0
578.317,4625.0
578.4,4598.3
578.483,4596.7
578.567,4612.0
578.65,4564.1
578.733,4618.3
578.816,4651.7
578.9,4628.4
578.983,4596.9
579.066,4576.9
579.149,4572.0
579.233,4629.4
579.316,4652.8
579.399,4717.3
579.482,4650.1
579.566,4660.5
579.649,4652.8
579.732,4643.6
579.815,4639.9
579.899,4660.6
579.982,4707.0
580.065,4695.6
580.148,4714.3
580.231,4735.5
580.315,4776.4
580.398,4823.2
580.481,4782.6
580.564,4816.7
580.648,4830.4
580.731,4915.1
580.814,4941.0
580.897,5014.1
580.98,5068.5
581.064,5016.9
581.147,5003.3
581.23,5055.8
581.313,5200.1
581.397,5375.6
581.48,5627.0
581.563,5982.9
581.646,6646.0
581.729,7663.9
581.813,9247.7
581.896,11335.8
581.979,13626.6
582.062,15522.5
582.145,16615.2
582.228,15179.8
582.312,12334.2
582.395,9506.4
582.478,7500.2
582.561,6144.8
582.644,5518.9
582.728,5236.4
582.811,5222.0
582.894,5213.8
582.977,5076.5
583.06,5009.1
583.143,4869.2
583.227,4893.6
583.31,4988.3
583.393,4951.0
583.476,4956.3
583.559,4940.7
583.642,5000.0
583.726,4957.2
583.809,4915.6
583.892,4921.3
583.975,4927.7
584.058,4970.1
584.141,4999.1
584.224,4943.9
584.308,5050.5
584.391,5067.9
584.474,5140.5
584.557,5136.8
584.64,5114.6
584.723,5134.7
584.806,5217.1
584.889,5304.8
584.973,5357.6
585.056,5435.6
585.139,5575.6
585.222,5918.4
585.305,6298.7
585.388,6918.2
585.471,7763.6
585.554,8674.1
585.638,9634.2
585.721,10335.2
585.804,10850.2
585.887,11273.0
585.97,11539.5
586.053,11356.2
586.136,10725.4
586.219,10093.8
586.302,9609.3
586.385,8974.3
586.469,8061.6
586.552,7343.3
586.635,6703.8
586.718,6229.2
586.801,5800.7
586.884,5694.1
586.967,5593.6
587.05,5389.8
587.133,5279.1
587.216,5192.5
587.299,5207.2
587.382,5212.9
587.465,5169.7
587.549,5136.5
587.632,5158.6
587.715,5133.4
587.798,5129.5
587.881,5139.3
587.964,5110.0
588.047,5016.5
588.13,5024.0
588.213,4983.8
588.296,5069.1
588.379,5178.0
588.462,5187.8
588.545,5104.5
588.628,5004.7
588.711,5092.7
588.794,5100.0
588.877,5144.7
588.96,5078.3
589.043,5037.1
589.126,4994.8
589.209,5014.2
589.292,5068.3
589.375,4969.3
589.458,5090.5
589.542,5067.6
589.625,4999.0
589.708,4962.2
589.791,4924.3
589.874,4991.7
589.957,5045.7
590.04,5059.8
590.123,5049.7
590.206,5000.8
590.289,4988.5
590.372,5037.1
590.455,5125.5
590.538,5120.8
590.621,5040.2
590.704,5029.1
590.787,5004.2
590.87,5021.4
590.953,4981.0
591.036,5023.6
591.119,5088.2
591.201,5129.7
591.284,5068.6
591.367,5104.0
591.45,5121.2
591.533,5054.3
591.616,5140.8
591.699,5067.9
591.782,5006.9
591.865,4993.6
591.948,5011.4
592.031,5126.0
592.114,5182.1
592.197,5222.0
592.28,5197.7
592.363,5169.7
592.446,5105.0
592.529,5022.6
592.612,5098.3
592.695,5106.6
592.778,5035.2
592.861,5097.8
592.944,5179.4
593.027,5131.1
593.109,5081.9
593.192,5123.3
593.275,5091.5
593.358,5071.5
593.441,5056.3
593.524,5120.2
593.607,5124.7
593.69,5105.1
593.773,5052.4
593.856,5123.3
593.939,5107.9
594.022,5150.1
594.105,5089.3
594.187,5129.7
594.27,5175.1
594.353,5118.0
594.436,5125.8
594.519,5219.6
594.602,5191.4
594.685,5162.6
594.768,5136.1
594.851,5089.1
594.934,5183.3
595.016,5217.4
595.099,5183.5
595.182,5228.6
595.265,5177.1
595.348,5140.4
595.431,5134.5
595.514,5116.7
595.597,5108.5
595.679,5278.6
595.762,5317.2
595.845,5253.9
595.928,5210.7
596.011,5222.0
596.094,5186.0
596.177,5139.1
596.26,5202.8
596.342,5238.7
596.425,5228.0
596.508,5373.3
596.591,5279.3
596.674,5195.2
596.757,5231.5
596.84,5261.1
596.922,5258.3
597.005,5171.5
597.088,5211.1
597.171,5155.9
597.254,5184.1
597.337,5167.7
597.419,5178.6
597.502,5184.6
597.585,5276.3
597.668,5323.0
597.751,5239.9
597.833,5240.0
597.916,5221.5
597.999,5281.6
598.082,5286.2
598.165,5313.2
598.248,5283.2
598.33,5280.9
598.413,5268.8
598.496,5179.0
598.579,5175.6
598.662,5244.4
598.744,5248.3
598.827,5287.7
598.91,5344.1
598.993,5320.9
599.076,5318.6
599.158,5287.3
599.241,5220.6
599.324,5182.7
599.407,5217.4
599.489,5280.6
599.572,5277.3
599.655,5391.6
599.738,5394.0
599.821,5296.3
599.903,5172.9
599.986,5210.9
600.069,5264.9
600.152,5333.4
600.234,5409.6
600.317,5392.4
600.4,5278.3
600.483,5210.6
600.565,5348.6
600.648,5241.5
600.731,5293.3
600.814,5399.7
600.896,5321.3
600.979,5304.7
601.062,5339.2
601.145,5289.9
601.227,5323.0
601.31,5339.6
601.393,5378.7
601.476,5345.6
601.558,5311.8
601.641,5248.9
601.724,5279.9
601.807,5334.8
601.889,5353.0
601.972,5311.2
602.055,5293.9
602.137,5320.8
602.22,5307.5
602.303,5315.2
602.386,5328.8
602.468,5299.6
602.551,5307.9
602.634,5310.2
602.716,5332.8
602.799,5377.1
602.882,5440.4
602.964,5457.6
603.047,5346.0
603.13,5300.0
603.213,5340.2
603.295,5362.9
603.378,5403.5
603.461,5355.8
603.543,5343.4
603.626,5402.0
603.709,5429.9
603.791,5363.1
603.874,5445.9
603.957,5379.9
604.039,5354.8
604.122,5369.1
604.205,5359.5
604.287,5326.7
604.37,5380.9
604.453,5307.2
604.535,5330.3
604.618,5384.5
604.701,5325.1
604.783,5343.1
604.866,5327.5
604.949,5382.5
605.031,5444.3
605.114,5327.0
605.196,5318.6
605.279,5363.2
605.362,5415.0
605.444,5387.7
605.527,5323.7
605.61,5366.9
605.692,5408.9
605.775,5375.8
605.857,5350.6
605.94,5363.4
606.023,5371.9
606.105,5391.7
606.188,5411.0
606.271,5453.1
606.353,5412.1
606.436,5359.7
606.518,5382.3
606.601,5370.5
606.684,5297.6
606.766,5421.7
606.849,5499.7
606.931,5498.5
607.014,5471.1
607.097,5371.5
607.179,5395.4
607.262,5404.4
607.344,5450.8
607.427,5363.2
607.51,5372.1
607.592,5396.4
607.675,5395.2
607.757,5454.6
607.84,5476.8
607.922,5429.7
608.005,5427.8
608.088,5339.2
608.17,5337.9
608.253,5448.0
608.335,5413.0
608.418,5372.7
608.5,5390.5
608.583,5427.5
608.665,5486.5
608.748,5337.7
608.831,5362.5
608.913,5446.4
608.996,5423.4
609.078,5415.1
609.161,5417.6
609.243,5429.0
609.326,5434.8
609.408,5375.4
609.491,5372.6
609.573,5467.7
609.656,5476.3
609.738,5422.3
609.821,5377.9
609.903,5482.2
609.986,5533.3
610.068,5433.0
610.151,5377.3
610.233,5445.5
610.316,5468.5
610.399,5485.1
610.481,5406.2
610.564,5427.4
610.646,5422.3
610.729,5537.9
610.811,5490.2
610.894,5480.3
610.976,5488.2
611.058,5496.5
611.141,5443.1
611.223,5405.8
611.306,5354.3
611.388,5438.5
611.471,5498.5
611.553,5565.2
611.636,5600.4
611.718,5554.9
611.801,5470.9
611.883,5460.2
611.966,5458.5
612.048,5433.6
612.131,5369.1
612.213,5443.1
612.296,5444.7
612.378,5502.6
612.461,5501.0
612.543,5445.5
612.625,5416.8
612.708,5431.8
612.79,5482.9
612.873,5544.6
612.955,5514.0
613.038,5510.9
613.12,5525.8
613.202,5470.7
613.285,5526.2
613.367,5527.1
613.45,5468.9
613.532,5489.1
613.615,5548.2
613.697,5550.2
613.779,5546.6
613.862,5529.2
613.944,5536.1
614.027,5435.9
614.109,5486.4
614.192,5481.2
614.274,5519.8
614.356,5485.0
614.439,5582.6
614.521,5573.4
614.604,5642.0
614.686,5635.8
614.768,5551.6
614.851,5540.6
614.933,5613.6
615.016,5571.0
615.098,5478.6
615.18,5424.8
615.263,5426.3
615.345,5553.5
615.427,5643.3
615.51,5588.6
615.592,5570.8
615.675,5578.0
615.757,5590.9
615.839,5571.2
615.922,5580.1
616.004,5515.4
616.086,5506.5
616.169,5579.3
616.251,5603.5
616.333,5599.2
616.416,5591.7
616.498,5650.3
616.58,5567.7
616.663,5609.6
616.745,5573.8
616.827,5463.8
616.91,5557.5
616.992,5584.2
617.074,5606.9
617.157,5600.2
617.239,5597.3
617.321,5694.5
617.404,5729.4
617.486,5656.3
617.568,5614.5
617.651,5720.8
617.733,5786.8
617.815,5740.2
617.898,5673.4
617.98,5612.6
618.062,5669.7
618.145,5680.0
618.227,5670.6
618.309,5714.9
618.392,5738.0
618.474,5737.1
618.556,5790.0
618.638,5697.8
618.721,5699.0
618.803,5672.3
618.885,5693.3
618.968,5663.2
619.05,5606.8
619.132,5672.6
619.214,5764.4
619.297,5774.1
619.379,5620.2
619.461,5634.7
619.543,5698.3
619.626,5647.6
619.708,5649.5
619.79,5573.8
619.873,5583.5
619.955,5714.3
620.037,5740.0
620.119,5724.6
620.202,5699.9
620.284,5586.2
620.366,5616.3
620.448,5621.3
620.53,5672.8
620.613,5680.7
620.695,5695.6
620.777,5696.0
620.859,5650.8
620.942,5721.9
621.024,5635.3
621.106,5597.7
621.188,5603.9
621.271,5675.1
621.353,5644.9
621.435,5628.5
621.517,5689.9
621.599,5700.1
621.682,5710.4
621.764,5751.5
621.846,5697.0
621.928,5650.3
622.01,5735.9
622.093,5782.3
622.175,5734.5
622.257,5678.8
622.339,5682.0
622.421,5685.0
622.504,5685.3
622.586,5668.3
622.668,5779.0
622.75,5775.0
622.832,5711.3
622.915,5729.6
622.997,5789.1
623.079,5789.8
623.161,5830.2
623.243,5880.2
623.325,5821.1
623.408,5765.1
623.49,5634.4
623.572,5674.6
623.654,5753.6
623.736,5781.4
623.818,5787.5
623.9,5820.5
623.983,5769.2
624.065,5813.0
624.147,5893.8
624.229,5979.1
624.311,6022.8
624.393,5820.8
624.475,5731.5
624.558,5814.6
624.64,5852.3
624.722,5901.9
624.804,5876.9
624.886,5910.9
624.968,5931.4
625.05,5946.9
625.132,5925.9
625.215,5922.5
625.297,6030.8
625.379,5924.1
625.461,5849.2
625.543,5782.7
625.625,5773.2
625.707,5834.6
625.789,5968.5
625.871,5977.3
625.953,5899.9
626.036,5756.0
626.118,5776.6
626.2,5753.3
626.282,5848.8
626.364,5916.6
626.446,5913.0
626.528,5804.4
626.61,5780.8
626.692,5877.9
626.774,5883.6
626.856,5922.9
626.938,5879.9
627.02,5729.6
627.103,5773.7
627.185,5935.7
627.267,6044.2
627.349,6051.2
627.431,5995.5
627.513,6032.2
627.595,5946.7
627.677,5854.3
627.759,5841.3
627.841,5938.2
627.923,6012.2
628.005,6137.0
628.087,6151.1
628.169,6201.4
628.251,6096.0
628.333,6122.2
628.415,6208.3
628.497,6188.0
628.579,6268.1
628.661,6208.0
628.743,6275.1
628.825,6337.3
628.907,6465.8
628.989,6502.6
629.071,6466.2
629.153,6474.5
629.235,6407.8
629.317,6365.1
629.399,6358.3
629.481,6355.0
629.563,6237.1
629.645,6189.1
629.727,6335.9
629.809,6406.7
629.891,6297.0
629.973,6297.5
630.055,6345.1
630.137,6400.3
630.219,6329.9
630.301,6238.3
630.383,6233.8
630.465,6238.6
630.547,6197.8
630.629,6317.1
630.711,6504.3
630.793,6619.4
630.875,6758.0
630.957,6891.2
631.039,7170.5
631.121,7335.6
631.203,7416.1
631.285,7616.5
631.367,7789.2
631.449,8019.9
631.531,8125.0
631.612,8171.0
631.694,8268.9
631.776,8243.5
631.858,8303.4
631.94,8119.1
632.022,8080.2
632.104,7969.0
632.186,7764.4
632.268,7529.8
632.35,7495.4
632.432,7457.6
632.514,7343.8
632.596,7277.1
632.677,7229.5
632.759,7162.5
632.841,7214.3
632.923,7113.5
633.005,7232.8
633.087,7147.1
633.169,7050.9
633.251,7148.6
633.333,7147.4
633.414,7039.7
633.496,6974.6
633.578,6985.6
633.66,6989.5
633.742,6949.5
633.824,6881.1
633.906,6883.6
633.988,6858.4
634.069,6850.3
634.151,6818.3
634.233,6601.8
634.315,6458.9
634.397,6447.7
634.479,6502.8
634.561,6592.1
634.642,6639.7
634.724,6677.6
634.806,6554.4
634.888,6410.5
634.97,6513.6
635.052,6566.0
635.134,6646.7
635.215,6638.1
635.297,6652.3
635.379,6724.8
635.461,6779.6
635.543,6882.3
635.625,6975.9
635.706,7132.8
635.788,7270.0
635.87,7353.5
635.952,7611.3
636.034,7785.0
636.115,8016.7
636.197,8270.3
636.279,8513.9
636.361,8616.4
636.443,8747.0
636.524,8743.4
636.606,8866.5
636.688,8596.6
636.77,8339.1
636.852,8041.3
636.933,7703.3
637.015,7444.3
637.097,7313.1
637.179,7016.4
637.26,6933.5
637.342,6939.3
637.424,6985.8
637.506,6972.3
637.588,6854.4
637.669,6837.2
637.751,6781.6
637.833,6647.7
637.915,6540.6
637.996,6506.8
638.078,6711.8
638.16,6645.2
638.242,6624.7
638.323,6500.1
638.405,6422.0
638.487,6556.7
638.569,6559.3
638.65,6450.7
638.732,6440.2
638.814,6439.2
638.896,6459.4
638.977,6635.9
639.059,6664.0
639.141,6714.6
639.222,6658.8
639.304,6496.2
639.386,6479.6
639.468,6505.2
639.549,6572.5
639.631,6534.2
639.713,6423.2
639.794,6428.2
639.876,6339.8
