nm,Intensity
526.553,835.66
526.69,835.42
526.827,835.82
526.963,835.64
527.1,835.9
527.237,836.64
527.373,835.14
527.51,834.92
527.647,834.84
527.784,835.32
527.92,836.3
528.057,834.96
528.194,835.5
528.33,835.64
528.467,835.84
528.603,835.7
528.74,835.92
528.877,835.52
529.013,835.74
529.15,835.48
529.286,836.42
529.423,835.26
529.56,835.86
529.696,835.12
529.833,835.74
529.969,835.4
530.106,835.82
530.242,835.48
530.379,835.46
530.515,836.32
530.652,835.9
530.788,835.82
530.925,835.02
531.061,835.3
531.198,835.68
531.334,835.14
531.47,835.36
531.607,835.58
531.743,835.82
531.88,836.4
532.016,854.98
532.152,918.96
532.289,895.94
532.425,843.44
532.562,835.8
532.698,835.64
532.834,835.36
532.971,835.32
533.107,835.86
533.243,835.44
533.38,835.06
533.516,835.82
533.652,837.48
533.789,849.32
533.925,892.66
534.061,941.52
534.197,958.48
534.334,962.14
534.47,961.18
534.606,964.14
534.742,966.88
534.879,964.9
535.015,965.48
535.151,963.46
535.287,965.78
535.423,966.5
535.56,970.84
535.696,972.54
535.832,970.62
535.968,972.24
536.104,971.9
536.24,971.52
536.376,970.14
536.513,970.58
536.649,972.12
536.785,973.04
536.921,970.02
537.057,973.04
537.193,970.56
537.329,972.9
537.465,969.62
537.601,972.18
537.737,971.78
537.873,972.8
538.009,973.7
538.145,975.1
538.281,973.82
538.417,974.86
538.553,971.8
538.689,972.4
538.825,973.92
538.961,971.02
539.097,970.76
539.233,971.32
539.369,972.82
539.505,971.84
539.641,972.62
539.777,972.9
539.913,972.78
540.049,975.42
540.185,974.88
540.321,969.84
540.457,972.82
540.592,971.92
540.728,971.84
540.864,971.96
541.0,973.26
541.136,974.22
541.272,973.42
541.408,976.54
541.543,975.28
541.679,975.56
541.815,974.26
541.951,974.64
542.087,974.6
542.222,975.5
542.358,976.68
542.494,976.14
542.63,975.62
542.765,978.22
542.901,977.4
543.037,978.92
543.173,979.64
543.308,981.1
543.444,980.94
543.58,979.48
543.715,980.62
543.851,981.5
543.987,981.46
544.123,984.0
544.258,982.08
544.394,983.2
544.529,983.44
544.665,981.72
544.801,984.06
544.936,988.08
545.072,986.62
545.208,986.58
545.343,988.14
545.479,987.28
545.614,989.1
545.75,986.58
545.886,988.44
546.021,990.2
546.157,988.74
546.292,986.58
546.428,989.56
546.563,989.54
546.699,989.18
546.834,987.24
546.97,989.5
547.105,989.24
547.241,988.94
547.376,987.86
547.512,986.44
547.647,991.4
547.783,987.02
547.918,987.66
548.054,988.0
548.189,988.8
548.325,987.64
548.46,987.98
548.595,988.52
548.731,987.9
548.866,989.58
549.002,988.54
549.137,988.94
549.272,988.44
549.408,987.02
549.543,985.82
549.679,987.1
549.814,989.2
549.949,989.1
550.085,986.54
550.22,987.52
550.355,984.1
550.491,985.48
550.626,984.62
550.761,985.42
550.896,984.4
551.032,985.4
551.167,983.34
551.302,983.4
551.438,984.38
551.573,985.08
551.708,982.4
551.843,983.56
551.979,985.04
552.114,984.02
552.249,982.92
552.384,983.12
552.519,982.32
552.655,980.84
552.79,980.76
552.925,980.0
553.06,981.18
553.195,980.62
553.331,979.2
553.466,979.14
553.601,979.98
553.736,980.1
553.871,978.58
554.006,981.68
554.141,979.88
554.276,980.84
554.412,979.86
554.547,978.16
554.682,979.56
554.817,978.8
554.952,981.14
555.087,978.8
555.222,979.36
555.357,977.24
555.492,979.74
555.627,980.36
555.762,976.74
555.897,976.62
556.032,975.3
556.167,975.26
556.302,974.74
556.437,974.18
556.572,976.48
556.707,975.86
556.842,976.7
556.977,976.68
557.112,978.3
557.247,975.9
557.382,978.22
557.517,975.6
557.652,977.4
557.787,977.84
557.922,975.94
558.057,976.8
558.192,975.44
558.327,975.26
558.462,976.1
558.596,974.6
558.731,975.82
558.866,975.76
559.001,977.66
559.136,976.24
559.271,976.2
559.406,976.9
559.54,978.8
559.675,978.16
559.81,978.68
559.945,979.64
560.08,978.3
560.215,978.44
560.349,980.16
560.484,979.42
560.619,979.36
560.754,978.74
560.889,978.08
561.023,978.38
561.158,978.64
561.293,979.74
561.428,980.24
561.562,977.78
561.697,979.42
561.832,978.92
561.966,977.94
562.101,976.04
562.236,978.64
562.371,979.34
562.505,980.94
562.64,979.32
562.775,982.14
562.909,982.72
563.044,982.4
563.179,983.38
563.313,982.8
563.448,983.18
563.583,983.38
563.717,984.14
563.852,987.14
563.986,988.24
564.121,988.02
564.256,989.34
564.39,989.16
564.525,988.6
564.659,989.98
564.794,990.98
564.929,991.08
565.063,991.58
565.198,991.12
565.332,992.7
565.467,994.58
565.601,992.6
565.736,993.92
565.87,996.3
566.005,996.16
566.139,997.1
566.274,997.48
566.408,995.82
566.543,993.76
566.677,991.88
566.812,994.48
566.946,992.08
567.081,994.72
567.215,993.78
567.35,994.66
567.484,996.38
567.619,996.4
567.753,997.46
567.888,996.88
568.022,997.18
568.156,998.52
568.291,999.4
568.425,999.82
568.56,1000.66
568.694,1000.58
568.828,1002.76
568.963,1003.92
569.097,1006.02
569.231,1003.88
569.366,1005.02
569.5,1006.18
569.635,1006.72
569.769,1006.38
569.903,1008.54
570.038,1008.6
570.172,1010.56
570.306,1009.02
570.441,1009.68
570.575,1010.16
570.709,1011.28
570.843,1012.46
570.978,1011.58
571.112,1012.4
571.246,1013.56
571.38,1013.56
571.515,1020.56
571.649,1022.08
571.783,1019.98
571.917,1016.28
572.052,1019.28
572.186,1018.86
572.32,1018.92
572.454,1019.0
572.589,1024.58
572.723,1022.64
572.857,1025.62
572.991,1025.78
573.125,1025.08
573.26,1026.6
573.394,1024.48
573.528,1024.8
573.662,1028.02
573.796,1026.46
573.93,1027.54
574.064,1030.96
574.199,1026.92
574.333,1028.08
574.467,1030.62
574.601,1030.26
574.735,1031.24
574.869,1030.74
575.003,1033.22
575.137,1032.52
575.271,1029.9
575.406,1036.12
575.54,1034.9
575.674,1034.26
575.808,1036.8
575.942,1036.7
576.076,1038.64
576.21,1039.64
576.344,1042.64
576.478,1043.0
576.612,1042.92
576.746,1038.54
576.88,1043.16
577.014,1044.0
577.148,1041.4
577.282,1041.5
577.416,1042.62
577.55,1040.7
577.684,1041.72
577.818,1040.64
577.952,1042.64
578.086,1042.94
578.22,1041.58
578.354,1044.76
578.488,1043.84
578.622,1045.54
578.756,1044.72
578.89,1044.38
579.023,1044.8
579.157,1044.9
579.291,1043.98
579.425,1045.5
579.559,1047.18
579.693,1046.82
579.827,1047.82
579.961,1046.28
580.095,1046.24
580.228,1046.5
580.362,1046.2
580.496,1044.08
580.63,1048.64
580.764,1047.36
580.898,1046.6
581.032,1044.7
581.165,1044.98
581.299,1044.88
581.433,1046.32
581.567,1048.82
581.701,1046.64
581.834,1045.28
581.968,1050.32
582.102,1046.9
582.236,1048.08
582.37,1047.84
582.503,1046.64
582.637,1048.5
582.771,1050.2
582.905,1045.08
583.038,1049.54
583.172,1050.32
583.306,1048.98
583.44,1047.54
583.573,1046.68
583.707,1049.48
583.841,1048.98
583.974,1046.42
584.108,1047.64
584.242,1044.78
584.375,1046.0
584.509,1046.58
584.643,1045.98
584.777,1046.32
584.91,1043.52
585.044,1045.92
585.177,1045.12
585.311,1046.8
585.445,1046.7
585.578,1042.84
585.712,1046.78
585.846,1044.26
585.979,1045.74
586.113,1045.32
586.247,1046.18
586.38,1044.0
586.514,1045.48
586.647,1047.16
586.781,1048.3
586.914,1047.62
587.048,1045.54
587.182,1045.36
587.315,1047.14
587.449,1046.8
587.582,1042.94
587.716,1045.08
587.849,1039.8
587.983,1039.88
588.116,1041.96
588.25,1039.32
588.384,1041.06
588.517,1039.7
588.651,1039.58
588.784,1037.26
588.918,1039.18
589.051,1037.9
589.185,1038.82
589.318,1039.1
589.452,1037.36
589.585,1035.12
589.718,1036.08
589.852,1037.16
589.985,1037.8
590.119,1035.48
590.252,1038.34
590.386,1038.52
590.519,1037.42
590.653,1040.6
590.786,1037.96
590.919,1037.84
591.053,1038.88
591.186,1037.34
591.32,1038.64
591.453,1038.78
591.586,1035.96
591.72,1036.46
591.853,1036.46
591.987,1035.16
592.12,1034.7
592.253,1036.34
592.387,1037.3
592.52,1033.86
592.653,1031.72
592.787,1032.78
592.92,1033.74
593.053,1033.7
593.187,1035.3
593.32,1031.16
593.453,1034.24
593.587,1033.86
593.72,1030.14
593.853,1032.28
593.987,1033.14
594.12,1029.8
594.253,1029.62
594.386,1031.4
594.52,1033.54
594.653,1034.92
594.786,1031.76
594.919,1030.18
595.053,1030.64
595.186,1027.02
595.319,1029.1
595.452,1030.86
595.586,1030.78
595.719,1031.14
595.852,1031.84
595.985,1031.08
596.119,1030.12
596.252,1029.76
596.385,1028.52
596.518,1028.84
596.651,1026.78
596.785,1028.78
596.918,1030.18
597.051,1026.6
597.184,1027.46
597.317,1027.48
597.45,1026.6
597.584,1025.76
597.717,1025.48
597.85,1024.22
597.983,1023.92
598.116,1025.66
598.249,1025.88
598.382,1027.22
598.516,1027.82
598.649,1026.94
598.782,1024.58
598.915,1026.28
599.048,1025.7
599.181,1026.42
599.314,1025.64
599.447,1024.2
599.58,1026.82
599.713,1026.52
599.847,1027.34
599.98,1026.5
600.113,1022.48
600.246,1021.62
600.379,1024.16
600.512,1021.0
600.645,1022.66
600.778,1021.24
600.911,1019.8
601.044,1021.82
601.177,1021.08
601.31,1019.78
601.443,1019.78
601.576,1016.78
601.709,1018.46
601.842,1015.0
601.975,1016.72
602.108,1014.38
602.241,1017.1
602.374,1015.82
602.507,1013.36
602.64,1015.84
602.773,1013.84
602.906,1015.42
603.039,1016.22
603.172,1016.26
603.305,1014.32
603.438,1017.46
603.571,1017.3
603.703,1016.9
603.836,1018.68
603.969,1017.36
604.102,1016.64
604.235,1016.22
604.368,1013.98
604.501,1016.22
604.634,1015.66
604.767,1012.68
604.9,1012.76
605.033,1012.2
605.165,1010.92
605.298,1008.34
605.431,1007.36
605.564,1009.38
605.697,1006.38
605.83,1007.28
605.963,1004.52
606.095,1006.92
606.228,1005.0
606.361,1005.5
606.494,1005.6
606.627,1007.6
606.76,1003.62
606.892,1005.5
607.025,1005.54
607.158,1005.94
607.291,1004.84
607.424,1006.98
607.556,1007.04
607.689,1007.2
607.822,1008.54
607.955,1009.46
608.088,1009.82
608.22,1009.96
608.353,1006.72
608.486,1009.68
608.619,1008.08
608.751,1007.56
608.884,1008.0
609.017,1007.64
609.15,1007.68
609.282,1008.04
609.415,1006.64
609.548,1006.08
609.681,1005.52
609.813,1005.62
609.946,1007.96
610.079,1008.8
610.211,1005.72
610.344,1008.32
610.477,1006.56
610.609,1007.16
610.742,1004.7
610.875,1007.42
611.007,1010.98
611.14,1005.42
611.273,1010.04
611.405,1006.86
611.538,1007.86
611.671,1009.2
611.803,1010.78
611.936,1008.48
612.069,1007.5
612.201,1007.46
612.334,1007.84
612.467,1008.62
612.599,1008.18
612.732,1010.6
612.864,1011.46
612.997,1011.46
613.13,1012.8
613.262,1009.74
613.395,1010.6
613.527,1009.34
613.66,1011.04
613.793,1011.88
613.925,1010.64
614.058,1012.86
614.19,1011.04
614.323,1013.0
614.456,1013.5
614.588,1012.3
614.721,1011.62
614.853,1013.26
614.986,1013.1
615.118,1011.16
615.251,1013.34
615.383,1012.36
615.516,1012.66
615.648,1009.36
615.781,1011.8
615.913,1011.74
616.046,1013.12
616.178,1011.86
616.311,1011.62
616.443,1009.88
616.576,1011.54
616.708,1010.84
616.841,1008.32
616.973,1012.14
617.106,1012.4
617.238,1012.12
617.371,1011.62
617.503,1011.72
617.636,1011.56
617.768,1011.4
617.901,1011.5
618.033,1012.3
618.166,1011.94
618.298,1014.76
618.43,1013.86
618.563,1015.2
618.695,1015.98
618.828,1015.68
618.96,1013.38
619.093,1011.8
619.225,1011.4
619.357,1014.1
619.49,1015.5
619.622,1015.0
619.755,1014.14
619.887,1013.68
620.019,1014.12
620.152,1013.7
620.284,1013.06
620.417,1011.52
620.549,1010.82
620.681,1012.82
620.814,1010.48
620.946,1010.18
621.078,1010.18
621.211,1012.06
621.343,1009.54
621.475,1011.98
621.608,1011.36
621.74,1012.52
621.872,1010.38
622.005,1014.44
622.137,1013.32
622.269,1014.14
622.402,1013.6
622.534,1017.06
622.666,1011.94
622.799,1016.58
622.931,1014.62
623.063,1016.06
623.195,1015.48
623.328,1016.6
623.46,1016.36
623.592,1017.08
623.725,1013.48
623.857,1014.7
623.989,1016.18
624.121,1016.68
624.254,1019.38
624.386,1017.36
624.518,1017.3
624.65,1016.68
624.783,1019.42
624.915,1018.42
625.047,1014.86
625.179,1014.5
625.312,1016.14
625.444,1016.86
625.576,1013.46
625.708,1014.56
625.841,1018.36
625.973,1012.78
626.105,1014.24
626.237,1012.68
626.369,1015.72
626.502,1016.96
626.634,1019.52
626.766,1022.66
626.898,1029.46
627.03,1039.34
627.163,1043.7
627.295,1048.2
627.427,1045.44
627.559,1039.58
627.691,1035.08
627.823,1031.88
627.956,1034.16
628.088,1032.84
628.22,1030.84
628.352,1037.58
628.484,1052.48
628.616,1064.12
628.748,1050.26
628.881,1038.58
629.013,1032.92
629.145,1032.22
629.277,1031.78
629.409,1030.6
629.541,1029.24
629.673,1026.22
629.805,1026.4
629.937,1025.7
630.07,1022.98
630.202,1024.72
630.334,1026.06
630.466,1024.5
630.598,1026.34
630.73,1026.98
630.862,1024.44
630.994,1020.82
631.126,1016.94
631.258,1015.68
631.39,1014.18
631.522,1015.1
631.655,1013.54
631.787,1012.68
631.919,1015.7
632.051,1011.88
632.183,1011.78
632.315,1010.76
632.447,1011.76
632.579,1007.32
632.711,1009.04
632.843,1007.98
632.975,1004.42
633.107,1006.26
633.239,1005.84
633.371,1006.5
633.503,1004.92
633.635,1003.3
633.767,1001.54
633.899,1002.06
634.031,1000.54
634.163,1001.96
634.295,1002.9
634.427,1003.82
634.559,1001.76
634.691,1003.66
634.823,1003.72
634.955,1002.82
635.087,1003.78
635.219,1004.06
635.351,1002.36
635.483,1001.78
635.615,1003.44
635.747,1003.7
635.879,1003.56
636.011,1003.12
636.143,1002.94
636.275,1002.14
636.406,1000.48
636.538,1002.06
636.67,998.56
636.802,999.42
636.934,999.66
637.066,998.24
637.198,996.92
637.33,996.66
637.462,996.84
637.594,993.88
637.726,997.3
637.858,994.5
637.989,993.56
638.121,994.16
638.253,996.0
638.385,992.7
638.517,995.74
638.649,991.46
638.781,994.58
638.913,994.62
639.045,996.1
639.176,995.34
639.308,994.6
639.44,994.92
639.572,994.76
639.704,993.78
639.836,992.38
639.968,993.7
640.1,996.44
640.231,994.12
640.363,990.92
640.495,990.82
640.627,991.66
640.759,992.0
640.891,993.18
641.022,989.5
641.154,991.56
641.286,990.96
641.418,991.48
641.55,990.96
641.682,989.82
641.813,986.92
641.945,988.16
642.077,986.22
642.209,990.02
642.341,985.4
642.472,987.52
642.604,986.02
642.736,987.08
642.868,986.32
643.0,986.46
643.131,985.84
643.263,985.8
643.395,986.5
643.527,983.6
643.658,983.88
643.79,984.74
643.922,986.48
644.054,984.7
644.186,982.98
644.317,983.8
644.449,982.74
644.581,982.2
644.713,982.66
644.844,983.34
644.976,980.76
645.108,980.76
645.24,981.8
645.371,980.86
645.503,982.4
645.635,979.0
645.767,980.26
645.898,979.48
646.03,977.0
646.162,977.44
646.293,978.38
646.425,976.92
646.557,978.96
646.689,977.38
646.82,976.52
646.952,978.44
647.084,977.54
647.215,977.48
647.347,978.02
647.479,975.18
647.61,976.58
647.742,975.64
647.874,974.8
648.006,975.78
648.137,974.76
648.269,976.5
648.401,975.12
648.532,976.54
648.664,973.54
648.796,975.2
648.927,973.7
649.059,974.34
649.191,973.84
649.322,971.88
649.454,973.68
649.586,974.16
649.717,971.12
649.849,971.52
649.981,970.68
650.112,971.12
650.244,971.3
650.375,970.98
650.507,968.42
650.639,968.88
650.77,968.74
650.902,969.68
651.034,968.76
651.165,969.22
651.297,967.34
651.429,968.4
651.56,967.62
651.692,967.18
651.823,967.24
651.955,967.24
652.087,965.14
652.218,967.62
652.35,967.16
652.481,967.18
652.613,967.12
652.745,968.7
652.876,967.96
653.008,967.06
653.139,966.06
653.271,965.68
653.403,967.92
653.534,964.4
653.666,965.74
653.797,965.46
653.929,967.08
654.061,966.42
654.192,964.42
654.324,965.14
654.455,966.38
654.587,964.58
654.718,965.58
654.85,964.06
654.982,963.42
655.113,964.14
655.245,964.28
655.376,962.48
655.508,963.62
655.639,962.46
655.771,962.84
655.902,964.2
656.034,961.98
656.166,963.14
656.297,961.7
656.429,962.46
656.56,961.46
656.692,961.32
656.823,960.8
656.955,962.22
657.086,961.52
657.218,962.06
657.349,963.5
657.481,962.22
657.612,960.18
657.744,960.84
657.875,960.7
658.007,958.88
658.138,962.58
658.27,961.44
658.401,963.06
658.533,963.52
658.664,961.52
658.796,962.44
658.927,962.82
659.059,962.8
659.19,960.86
659.322,963.54
659.453,962.54
659.585,962.66
659.716,960.92
659.848,961.3
659.979,961.92
660.111,961.4
660.242,962.2
660.374,960.18
660.505,960.72
660.637,961.32
660.768,959.76
660.9,958.52
661.031,959.0
661.163,959.8
661.294,960.86
661.426,958.4
661.557,960.94
661.689,958.3
661.82,957.88
661.951,959.32
662.083,959.6
662.214,959.78
662.346,960.82
662.477,959.52
662.609,959.78
662.74,958.98
662.872,958.52
663.003,958.44
663.135,957.22
