nm,Intensity
791.75,5381.65
792.024,5372.75
792.298,5364.75
792.572,5347.5
792.846,5346.6
793.12,5359.0
793.394,5321.95
793.668,5315.7
793.942,5311.05
794.215,5305.2
794.489,5317.8
794.763,5290.0
795.037,5312.75
795.311,5323.45
795.585,5331.95
795.859,5325.65
796.133,5344.45
796.407,5350.25
796.681,5328.2
796.955,5318.2
797.228,5291.7
797.502,5311.6
797.776,5314.35
798.05,5325.95
798.324,5324.05
798.598,5344.05
798.871,5439.8
799.145,5531.7
799.419,5533.95
799.693,5457.4
799.967,5405.0
800.241,5365.6
800.514,5332.7
800.788,5320.05
801.062,5294.05
801.336,5280.15
801.61,5297.5
801.883,5294.45
802.157,5312.8
802.431,5316.2
802.705,5363.0
802.978,5465.7
803.252,5648.05
803.526,5721.8
803.8,5740.45
804.073,5609.8
804.347,5415.15
804.621,5315.5
804.894,5300.35
805.168,5262.15
805.442,5270.1
805.715,5271.4
805.989,5222.7
806.263,5240.9
806.536,5201.45
806.81,5210.75
807.084,5188.7
807.357,5181.55
807.631,5197.5
807.905,5197.1
808.178,5218.7
808.452,5186.0
808.726,5177.0
808.999,5191.1
809.273,5189.8
809.546,5179.5
809.82,5198.1
810.094,5241.45
810.367,5268.25
810.641,5356.05
810.914,5433.35
811.188,5467.6
811.461,5384.1
811.735,5268.15
812.008,5226.7
812.282,5201.95
812.556,5157.45
812.829,5139.35
813.103,5147.25
813.376,5143.2
813.65,5141.8
813.923,5111.4
814.197,5104.3
814.47,5106.6
814.744,5088.85
815.017,5095.65
815.29,5092.15
815.564,5074.7
815.837,5082.7
816.111,5074.9
816.384,5052.65
816.658,5088.15
816.931,5086.95
817.205,5068.3
817.478,5057.5
817.751,5054.8
818.025,5057.3
818.298,5067.55
818.572,5009.05
818.845,4991.65
819.118,4996.55
819.392,4993.1
819.665,4995.3
819.938,4994.35
820.212,5007.5
820.485,4996.95
820.758,4967.2
821.032,4985.35
821.305,4975.85
821.578,4968.5
821.852,4946.3
822.125,4916.7
822.398,4961.7
822.672,4946.85
822.945,4940.3
823.218,4952.85
823.491,4973.65
823.765,4985.2
824.038,5003.75
824.311,5033.2
824.585,5043.05
824.858,4999.1
825.131,4943.55
825.404,4941.6
825.677,4918.1
825.951,4887.0
826.224,4879.7
826.497,4868.4
826.77,4867.4
827.043,4866.1
827.317,4888.85
827.59,4868.05
827.863,4828.6
828.136,4828.9
828.409,4811.65
828.682,4810.65
828.956,4826.3
829.229,4820.45
829.502,4820.75
829.775,4828.25
830.048,4794.1
830.321,4781.25
830.594,4783.35
830.867,4788.0
831.14,4765.55
831.413,4779.05
831.687,4773.4
831.96,4764.0
832.233,4756.05
832.506,4763.5
832.779,4778.95
833.052,4767.75
833.325,4751.5
833.598,4743.45
833.871,4724.6
834.144,4733.65
834.417,4730.05
834.69,4726.9
834.963,4725.75
835.236,4719.15
835.509,4716.9
835.782,4694.5
836.055,4692.6
836.328,4708.85
836.601,4715.05
836.874,4724.4
837.147,4698.9
837.419,4729.85
837.692,4751.0
837.965,4766.15
838.238,4772.55
838.511,4764.75
838.784,4718.9
839.057,4688.55
839.33,4689.6
839.603,4705.45
839.876,4709.3
840.148,4704.7
840.421,4715.75
840.694,4723.65
840.967,4697.05
841.24,4685.15
841.513,4662.15
841.785,4630.25
842.058,4629.75
842.331,4636.55
842.604,4652.7
842.877,4624.3
843.149,4632.65
843.422,4620.8
843.695,4630.5
843.968,4620.15
844.24,4611.05
844.513,4603.65
844.786,4609.75
845.059,4612.05
845.331,4602.65
845.604,4588.45
845.877,4585.0
846.15,4592.3
846.422,4581.35
846.695,4585.55
846.968,4585.85
847.24,4585.05
847.513,4591.9
847.786,4565.15
848.058,4587.35
848.331,4581.05
848.604,4573.2
848.876,4568.9
849.149,4578.9
849.421,4583.35
849.694,4580.7
849.967,4575.75
850.239,4583.65
850.512,4572.15
850.784,4546.75
851.057,4568.0
851.33,4561.05
851.602,4553.7
851.875,4549.5
852.147,4550.15
852.42,4545.1
852.692,4559.3
852.965,4545.65
853.237,4531.7
853.51,4525.3
853.782,4531.9
854.055,4548.9
854.327,4539.45
854.6,4521.95
854.872,4524.3
855.145,4534.0
855.417,4512.65
855.69,4504.15
855.962,4528.25
856.235,4500.7
856.507,4505.35
856.779,4499.75
857.052,4494.6
857.324,4482.0
857.597,4489.25
857.869,4489.15
858.142,4491.0
858.414,4502.45
858.686,4508.1
858.959,4505.7
859.231,4480.8
859.503,4469.75
859.776,4476.35
860.048,4469.35
860.32,4474.45
860.593,4474.6
860.865,4459.4
861.137,4459.6
861.41,4478.05
861.682,4475.35
861.954,4464.3
862.226,4468.75
862.499,4467.45
862.771,4499.2
863.043,4484.45
863.315,4490.1
863.588,4489.7
863.86,4475.0
864.132,4466.45
864.404,4474.25
864.677,4464.1
864.949,4453.95
865.221,4444.45
865.493,4435.8
865.765,4431.3
866.038,4435.3
866.31,4441.95
866.582,4421.95
866.854,4418.1
867.126,4423.8
867.398,4427.45
867.67,4438.35
867.943,4439.65
868.215,4432.35
868.487,4434.95
868.759,4401.2
869.031,4405.65
869.303,4405.65
869.575,4410.4
869.847,4417.45
870.119,4409.75
870.391,4404.9
870.663,4403.8
870.935,4414.25
871.207,4404.15
871.479,4399.8
871.751,4399.5
872.023,4382.0
872.295,4394.05
872.567,4393.45
872.839,4397.1
873.111,4397.15
873.383,4400.1
873.655,4398.9
873.927,4394.25
874.199,4387.6
874.471,4400.45
874.743,4395.9
875.015,4401.85
875.287,4407.05
875.559,4402.5
875.831,4403.0
876.103,4417.25
876.374,4417.4
876.646,4405.0
876.918,4398.55
877.19,4382.4
877.462,4363.9
877.734,4353.75
878.006,4367.05
878.277,4363.0
878.549,4353.55
878.821,4353.15
879.093,4343.45
879.365,4340.3
879.636,4337.0
879.908,4341.1
880.18,4327.55
880.452,4321.7
880.723,4320.4
880.995,4309.4
881.267,4311.55
881.539,4311.4
881.81,4298.85
882.082,4312.25
882.354,4315.75
882.626,4311.85
882.897,4304.7
883.169,4301.5
883.441,4304.55
883.712,4305.15
883.984,4310.8
884.256,4309.1
884.527,4314.4
884.799,4314.9
885.07,4323.75
885.342,4337.75
885.614,4334.6
885.885,4323.8
886.157,4333.4
886.428,4324.15
886.7,4303.95
886.972,4294.25
887.243,4287.95
887.515,4289.4
887.786,4271.35
888.058,4264.15
888.329,4262.1
888.601,4262.65
888.872,4258.6
889.144,4249.05
889.415,4245.0
889.687,4244.35
889.958,4252.15
890.23,4252.35
890.501,4240.75
890.773,4228.9
891.044,4238.95
891.316,4234.7
891.587,4227.05
891.859,4223.65
892.13,4232.2
892.401,4238.15
892.673,4223.55
892.944,4206.65
893.216,4212.05
893.487,4219.25
893.758,4211.5
894.03,4202.5
894.301,4213.45
894.572,4201.0
894.844,4195.75
895.115,4186.15
895.386,4174.85
895.658,4179.2
895.929,4185.2
896.2,4192.65
896.472,4186.2
896.743,4180.7
897.014,4184.35
897.285,4181.7
897.557,4174.5
897.828,4173.85
898.099,4173.6
898.37,4169.15
898.642,4165.7
898.913,4156.35
899.184,4151.9
899.455,4146.5
899.726,4146.75
899.998,4145.9
900.269,4130.25
900.54,4136.95
900.811,4141.35
901.082,4146.95
901.353,4146.15
901.625,4137.05
901.896,4133.5
902.167,4132.15
902.438,4142.4
902.709,4137.3
902.98,4128.55
903.251,4128.6
903.522,4137.95
903.793,4125.7
904.064,4121.25
904.335,4117.35
904.606,4112.5
904.877,4114.4
905.148,4111.5
905.419,4118.1
905.69,4109.3
905.961,4095.1
906.232,4108.8
906.503,4098.45
906.774,4097.4
907.045,4089.5
907.316,4087.45
907.587,4090.2
907.858,4094.55
908.129,4079.75
908.4,4084.55
908.671,4072.8
908.942,4078.1
909.213,4078.35
909.484,4074.65
909.755,4077.05
910.025,4072.3
910.296,4073.7
910.567,4067.9
910.838,4063.5
911.109,4067.0
911.38,4064.35
911.65,4062.0
911.921,4055.5
912.192,4056.0
912.463,4058.0
912.734,4058.5
913.004,4059.25
913.275,4048.7
913.546,4044.2
913.817,4042.8
914.087,4048.65
914.358,4043.65
914.629,4032.35
914.9,4033.3
915.17,4041.15
915.441,4029.05
915.712,4020.4
915.982,4026.6
916.253,4021.55
916.524,4025.75
916.794,4027.95
917.065,4019.65
917.336,4013.8
917.606,4013.45
917.877,4018.1
918.147,4017.0
918.418,4010.2
918.689,4008.0
918.959,3998.9
919.23,3996.45
919.5,4010.1
919.771,4003.95
920.042,4007.25
920.312,4001.5
920.583,4000.85
920.853,4008.35
921.124,3997.1
921.394,3993.0
921.665,3995.3
921.935,3983.5
922.206,3989.4
922.476,3983.75
922.747,3984.05
923.017,3984.4
923.287,3978.2
923.558,3980.65
923.828,3968.65
924.099,3965.35
924.369,3967.3
924.639,3970.35
924.91,3969.15
925.18,3974.5
925.451,3968.0
925.721,3962.05
925.991,3966.05
926.262,3958.75
926.532,3959.35
926.802,3957.3
927.073,3958.25
927.343,3965.75
927.613,3955.4
927.884,3953.3
928.154,3953.05
928.424,3945.0
928.694,3941.7
928.965,3941.1
929.235,3943.95
929.505,3939.65
929.775,3938.5
930.046,3938.65
930.316,3937.6
930.586,3932.4
930.856,3928.6
931.126,3929.6
931.397,3925.55
931.667,3926.15
931.937,3927.75
932.207,3919.4
932.477,3920.4
932.747,3922.35
933.017,3926.9
933.288,3926.35
933.558,3921.6
933.828,3917.4
934.098,3915.45
934.368,3909.15
934.638,3906.25
934.908,3914.15
935.178,3914.45
935.448,3909.85
935.718,3905.5
935.988,3906.95
936.258,3907.65
936.528,3904.45
936.798,3899.5
937.068,3896.45
937.338,3895.4
937.608,3896.9
937.878,3892.55
938.148,3891.05
938.418,3888.45
938.688,3889.75
938.958,3891.65
939.228,3893.85
939.498,3891.7
939.767,3888.75
940.037,3885.5
940.307,3883.45
940.577,3878.75
940.847,3886.1
941.117,3885.9
941.387,3882.2
941.656,3879.15
941.926,3879.45
942.196,3882.5
942.466,3877.45
942.736,3877.8
943.005,3871.95
943.275,3873.9
943.545,3870.1
943.815,3870.05
944.084,3865.85
944.354,3866.3
944.624,3866.95
944.894,3865.45
945.163,3864.45
945.433,3859.25
945.703,3865.15
945.972,3860.45
946.242,3866.55
946.512,3861.1
946.781,3859.85
947.051,3861.3
947.321,3860.8
947.59,3861.0
947.86,3856.65
948.13,3853.1
948.399,3849.95
948.669,3853.3
948.938,3849.8
949.208,3854.15
949.477,3848.85
949.747,3848.05
950.016,3848.15
950.286,3851.9
950.556,3848.4
950.825,3845.85
951.095,3846.2
951.364,3841.85
951.634,3843.5
951.903,3840.25
952.172,3836.5
952.442,3837.4
952.711,3839.95
952.981,3834.8
953.25,3833.05
953.52,3835.85
953.789,3836.0
954.058,3837.25
954.328,3833.15
954.597,3833.5
954.867,3835.5
955.136,3835.4
955.405,3831.6
955.675,3825.95
955.944,3831.25
956.213,3828.3
956.483,3828.85
956.752,3826.65
957.021,3827.05
957.29,3831.85
957.56,3827.5
957.829,3825.45
958.098,3823.9
958.367,3822.6
958.637,3822.85
958.906,3821.55
959.175,3820.5
959.444,3822.2
959.714,3818.65
959.983,3820.0
960.252,3821.6
960.521,3817.75
960.79,3815.5
961.059,3812.25
961.328,3814.45
961.598,3813.9
961.867,3815.55
962.136,3814.95
962.405,3810.95
962.674,3811.8
962.943,3816.35
963.212,3811.35
963.481,3808.25
963.75,3809.5
964.019,3808.55
964.288,3807.3
964.557,3810.95
964.826,3811.85
965.095,3802.65
965.364,3805.35
965.633,3806.35
965.902,3806.8
966.171,3801.35
966.44,3802.5
966.709,3801.15
966.978,3802.95
967.247,3802.45
967.516,3799.55
967.785,3805.7
968.054,3801.45
968.323,3800.6
968.591,3803.45
968.86,3800.8
969.129,3795.65
969.398,3801.6
969.667,3799.6
969.936,3797.5
970.204,3797.7
970.473,3795.85
970.742,3796.65
971.011,3796.4
971.28,3795.0
971.548,3795.35
971.817,3792.85
972.086,3791.55
972.355,3792.9
972.623,3789.7
972.892,3792.65
973.161,3792.5
973.429,3793.0
973.698,3791.15
973.967,3791.3
974.235,3789.75
974.504,3790.95
974.773,3792.2
975.041,3788.55
975.31,3789.9
975.579,3788.8
975.847,3785.0
976.116,3785.4
976.384,3785.7
976.653,3782.05
976.922,3781.1
977.19,3783.05
977.459,3784.5
977.727,3783.1
977.996,3782.35
978.264,3783.05
978.533,3782.9
978.801,3782.6
979.07,3781.05
979.338,3782.75
979.607,3783.25
979.875,3777.85
980.143,3781.55
980.412,3780.7
980.68,3781.8
980.949,3781.25
981.217,3777.6
981.486,3779.6
981.754,3778.1
982.022,3778.75
982.291,3778.2
982.559,3778.9
982.827,3776.95
983.096,3778.5
983.364,3776.9
983.632,3774.95
983.901,3776.45
984.169,3776.7
984.437,3771.55
984.705,3778.0
984.974,3772.3
985.242,3773.65
985.51,3774.05
985.778,3773.6
986.047,3773.2
986.315,3772.35
986.583,3772.4
986.851,3770.9
987.119,3772.2
987.388,3771.75
987.656,3773.9
987.924,3771.3
988.192,3770.4
988.46,3768.65
988.728,3771.25
988.996,3769.65
989.264,3769.65
989.533,3767.85
989.801,3769.55
990.069,3767.95
990.337,3767.0
990.605,3770.65
990.873,3767.5
991.141,3768.85
991.409,3768.4
991.677,3767.0
991.945,3768.05
992.213,3767.1
992.481,3763.8
992.749,3765.55
993.017,3765.45
993.285,3763.45
993.553,3763.75
993.82,3764.25
994.088,3762.4
994.356,3762.65
994.624,3763.95
994.892,3762.95
995.16,3761.75
995.428,3762.05
995.696,3762.9
995.963,3764.85
996.231,3761.95
996.499,3762.4
996.767,3763.15
997.035,3761.85
997.302,3762.05
997.57,3761.95
997.838,3761.35
998.106,3760.3
998.373,3759.85
998.641,3762.4
998.909,3761.25
999.177,3759.3
999.444,3759.15
999.712,3759.95
999.98,3760.6
1000.25,3760.2
1000.51,3760.4
1000.78,3759.0
1001.05,3759.1
1001.32,3756.75
1001.59,3755.55
1001.85,3755.7
1002.12,3756.3
1002.39,3757.8
1002.66,3755.7
1002.92,3756.2
1003.19,3756.6
1003.46,3757.85
1003.73,3755.25
1003.99,3755.3
1004.26,3755.1
1004.53,3755.4
1004.8,3754.55
1005.06,3754.3
1005.33,3755.45
1005.6,3753.2
1005.87,3753.75
1006.13,3755.1
1006.4,3753.05
1006.67,3752.85
1006.94,3754.75
1007.2,3755.0
1007.47,3752.1
1007.74,3752.6
1008.0,3752.95
1008.27,3755.15
1008.54,3756.85
1008.81,3755.5
1009.07,3757.0
1009.34,3754.0
1009.61,3756.8
1009.88,3757.6
1010.14,3757.7
1010.41,3756.9
1010.68,3758.0
1010.95,3757.85
1011.21,3758.35
1011.48,3759.85
1011.75,3758.8
1012.01,3761.1
1012.28,3759.1
1012.55,3760.4
1012.82,3760.65
1013.08,3760.95
1013.35,3762.9
1013.62,3762.5
1013.88,3761.5
1014.15,3765.0
1014.42,3762.4
1014.69,3763.0
1014.95,3762.3
1015.22,3763.7
1015.49,3762.4
1015.75,3762.25
1016.02,3758.85
1016.29,3759.05
1016.55,3759.0
1016.82,3758.5
1017.09,3755.8
1017.36,3757.2
1017.62,3758.85
1017.89,3757.4
1018.16,3755.8
1018.42,3755.3
1018.69,3755.1
1018.96,3752.55
1019.22,3753.85
1019.49,3750.9
1019.76,3750.1
1020.02,3752.45
1020.29,3748.05
1020.56,3750.45
1020.83,3751.2
1021.09,3749.35
1021.36,3748.05
1021.63,3749.85
1021.89,3748.8
1022.16,3749.4
1022.43,3749.55
1022.69,3747.35
1022.96,3748.4
1023.23,3746.95
1023.49,3747.1
1023.76,3745.3
1024.03,3744.45
1024.29,3743.15
1024.56,3745.25
1024.83,3744.45
1025.09,3743.1
1025.36,3743.3
1025.63,3742.45
1025.89,3743.35
1026.16,3742.05
1026.43,3740.85
1026.69,3741.7
1026.96,3741.35
1027.23,3741.55
1027.49,3741.5
1027.76,3741.7
1028.03,3740.15
1028.29,3738.8
1028.56,3742.0
1028.83,3740.6
1029.09,3739.45
1029.36,3738.65
1029.62,3740.8
1029.89,3739.85
1030.16,3741.25
1030.42,3739.85
1030.69,3738.75
1030.96,3740.9
1031.22,3740.5
1031.49,3741.15
1031.76,3741.15
1032.02,3739.7
1032.29,3739.5
1032.56,3738.25
1032.82,3740.4
1033.09,3737.4
1033.35,3739.95
1033.62,3738.85
1033.89,3738.05
1034.15,3737.8
1034.42,3738.65
1034.69,3738.85
1034.95,3738.3
1035.22,3740.0
1035.48,3738.45
1035.75,3737.9
1036.02,3737.4
1036.28,3736.7
1036.55,3738.7
1036.81,3738.25
1037.08,3737.25
1037.35,3737.7
1037.61,3736.55
1037.88,3738.55
1038.15,3739.05
1038.41,3738.0
1038.68,3737.95
1038.94,3737.7
1039.21,3737.55
1039.48,3736.7
1039.74,3737.1
1040.01,3736.75
1040.27,3734.95
1040.54,3737.1
1040.81,3737.5
1041.07,3736.9
1041.34,3736.5
1041.6,3735.65
1041.87,3736.0
1042.14,3737.05
1042.4,3736.5
1042.67,3736.25
1042.93,3736.55
1043.2,3737.8
1043.47,3735.6
1043.73,3736.65
1044.0,3735.75
1044.26,3736.55
1044.53,3736.75
1044.79,3735.35
1045.06,3735.8
1045.33,3736.4
1045.59,3736.25
1045.86,3734.45
1046.12,3734.3
1046.39,3734.85
1046.65,3735.8
1046.92,3735.6
1047.19,3735.55
1047.45,3735.9
1047.72,3735.5
1047.98,3735.45
1048.25,3734.65
1048.51,3735.05
1048.78,3736.4
1049.05,3736.95
1049.31,3734.55
1049.58,3734.55
1049.84,3735.65
1050.11,3733.6
1050.37,3733.75
1050.64,3735.05
1050.91,3734.8
1051.17,3734.4
1051.44,3735.9
1051.7,3735.65
1051.97,3735.85
1052.23,3733.85
1052.5,3734.35
1052.76,3735.0
1053.03,3734.25
1053.29,3733.35
1053.56,3734.35
1053.83,3734.35
1054.09,3735.35
1054.36,3734.55
1054.62,3734.2
1054.89,3734.55
1055.15,3735.85
1055.42,3735.05
1055.68,3736.0
1055.95,3734.45
1056.21,3734.5
1056.48,3733.5
1056.74,3733.85
1057.01,3734.6
1057.27,3733.75
1057.54,3734.55
1057.81,3734.9
1058.07,3733.15
1058.34,3735.05
1058.6,3733.7
1058.87,3733.3
1059.13,3733.7
1059.4,3733.65
1059.66,3734.2
1059.93,3736.05
1060.19,3734.1
1060.46,3734.45
1060.72,3732.9
1060.99,3734.05
1061.25,3733.5
1061.52,3734.6
1061.78,3733.55
1062.05,3734.25
1062.31,3733.6
1062.58,3733.75
1062.84,3733.1
1063.11,3732.35
1063.37,3732.75
1063.64,3733.45
1063.9,3734.85
1064.17,3732.2
1064.43,3733.3
1064.7,3733.95
1064.96,3733.6
1065.23,3733.5
1065.49,3732.55
1065.76,3732.65
1066.02,3732.75
1066.29,3733.05
1066.55,3733.4
1066.82,3732.6
1067.08,3733.55
1067.35,3734.3
1067.61,3731.55
1067.88,3732.2
