nm,Intensity
528.615,1832.48
528.699,1832.22
528.784,1832.54
528.868,1832.68
528.952,1832.14
529.036,1832.18
529.121,1831.96
529.205,1832.72
529.289,1833.28
529.373,1833.06
529.458,1832.26
529.542,1832.54
529.626,1832.64
529.71,1832.62
529.795,1832.6
529.879,1832.86
529.963,1833.36
530.047,1832.52
530.132,1832.22
530.216,1833.48
530.3,1832.74
530.384,1832.58
530.469,1832.6
530.553,1833.32
530.637,1834.02
530.721,1832.8
530.806,1833.18
530.89,1833.58
530.974,1833.86
531.058,1833.92
531.143,1835.4
531.227,1834.74
531.311,1836.58
531.395,1837.24
531.479,1840.98
531.564,1847.7
531.648,1881.32
531.732,2017.1
531.816,2467.66
531.901,3146.26
531.985,3617.6
532.069,3400.66
532.153,2776.56
532.237,2139.56
532.322,1871.52
532.406,1838.78
532.49,1836.6
532.574,1835.12
532.658,1835.08
532.743,1835.98
532.827,1834.74
532.911,1834.8
532.995,1835.88
533.079,1835.84
533.164,1838.3
533.248,1841.52
533.332,1848.6
533.416,1874.86
533.5,1947.14
533.585,2127.54
533.669,2432.56
533.753,2800.62
533.837,3127.84
533.921,3355.0
534.005,3503.28
534.09,3580.28
534.174,3615.76
534.258,3607.98
534.342,3603.22
534.426,3625.3
534.511,3659.58
534.595,3697.34
534.679,3743.9
534.763,3764.82
534.847,3780.44
534.931,3779.78
535.016,3784.0
535.1,3796.84
535.184,3834.36
535.268,3883.02
535.352,3912.34
535.436,3881.06
535.52,3909.26
535.605,3887.66
535.689,3846.92
535.773,3847.32
535.857,3879.62
535.941,3891.76
536.025,3879.48
536.109,3889.4
536.194,3927.72
536.278,3933.18
536.362,3906.02
536.446,3923.52
536.53,3946.32
536.614,3950.2
536.698,3906.48
536.783,3931.08
536.867,3924.12
536.951,3951.52
537.035,3970.06
537.119,3992.44
537.203,4010.0
537.287,4022.92
537.371,4023.66
537.456,4062.44
537.54,4059.0
537.624,4099.68
537.708,4105.62
537.792,4122.24
537.876,4152.8
537.96,4142.14
538.044,4111.32
538.128,4120.22
538.213,4085.94
538.297,4101.62
538.381,4103.2
538.465,4082.68
538.549,4098.14
538.633,4147.12
538.717,4162.42
538.801,4194.92
538.885,4220.32
538.969,4243.06
539.053,4264.68
539.138,4254.28
539.222,4244.74
539.306,4267.92
539.39,4290.42
539.474,4294.02
539.558,4288.9
539.642,4260.72
539.726,4271.98
539.81,4310.0
539.894,4365.34
539.978,4362.56
540.062,4349.16
540.147,4355.32
540.231,4383.48
540.315,4357.62
540.399,4363.72
540.483,4358.08
540.567,4371.12
540.651,4401.72
540.735,4397.22
540.819,4390.02
540.903,4410.34
540.987,4421.96
541.071,4414.08
541.155,4446.28
541.239,4449.46
541.323,4431.0
541.407,4436.78
541.491,4474.84
541.575,4424.06
541.66,4404.48
541.744,4453.02
541.828,4524.36
541.912,4591.9
541.996,4555.82
542.08,4533.3
542.164,4492.16
542.248,4563.94
542.332,4536.4
542.416,4531.64
542.5,4544.44
542.584,4586.84
542.668,4578.7
542.752,4605.92
542.836,4659.26
542.92,4637.4
543.004,4631.58
543.088,4650.88
543.172,4646.96
543.256,4631.92
543.34,4691.98
543.424,4745.82
543.508,4714.14
543.592,4640.02
543.676,4633.92
543.76,4668.0
543.844,4726.58
543.928,4735.74
544.012,4707.72
544.096,4720.68
544.18,4724.96
544.264,4729.26
544.348,4758.6
544.432,4758.32
544.516,4751.78
544.6,4755.46
544.684,4782.7
544.768,4842.22
544.852,4844.66
544.936,4817.34
545.02,4793.68
545.104,4778.18
545.188,4829.38
545.272,4831.7
545.356,4835.38
545.44,4869.12
545.524,4903.9
545.608,4905.7
545.692,4910.86
545.776,4919.02
545.86,4924.66
545.944,4933.74
546.028,4964.52
546.112,4949.2
546.195,4940.04
546.279,4907.46
546.363,4933.74
546.447,4950.94
546.531,4978.2
546.615,5001.62
546.699,5029.66
546.783,5058.88
546.867,5028.78
546.951,4992.72
547.035,4986.18
547.119,4982.8
547.203,5024.68
547.287,5046.74
547.371,5016.9
547.455,5031.1
547.539,5054.04
547.623,5080.96
547.706,5082.9
547.79,5058.94
547.874,5111.52
547.958,5100.02
548.042,5118.46
548.126,5155.8
548.21,5185.88
548.294,5209.7
548.378,5214.54
548.462,5191.06
548.546,5171.28
548.63,5190.04
548.713,5198.68
548.797,5185.84
548.881,5190.5
548.965,5204.92
549.049,5206.06
549.133,5273.44
549.217,5293.46
549.301,5188.1
549.385,5165.52
549.469,5211.8
549.552,5265.98
549.636,5254.38
549.72,5242.38
549.804,5248.28
549.888,5252.04
549.972,5259.08
550.056,5248.94
550.14,5251.88
550.224,5253.38
550.307,5300.7
550.391,5287.38
550.475,5303.0
550.559,5265.0
550.643,5292.76
550.727,5325.92
550.811,5375.76
550.895,5396.54
550.978,5371.28
551.062,5420.14
551.146,5428.3
551.23,5397.78
551.314,5429.94
551.398,5462.46
551.482,5490.36
551.565,5497.74
551.649,5425.48
551.733,5431.18
551.817,5484.46
551.901,5509.5
551.985,5513.58
552.069,5501.72
552.152,5485.08
552.236,5540.18
552.32,5513.72
552.404,5495.56
552.488,5506.9
552.572,5512.22
552.655,5544.94
552.739,5592.12
552.823,5575.24
552.907,5522.02
552.991,5538.24
553.075,5547.94
553.158,5543.52
553.242,5538.32
553.326,5559.64
553.41,5588.02
553.494,5622.16
553.577,5609.3
553.661,5583.76
553.745,5551.2
553.829,5650.64
553.913,5652.8
553.997,5637.44
554.08,5700.1
554.164,5656.06
554.248,5626.86
554.332,5696.88
554.416,5745.36
554.499,5756.62
554.583,5783.82
554.667,5784.1
554.751,5771.66
554.835,5743.9
554.918,5738.08
555.002,5763.82
555.086,5801.46
555.17,5864.36
555.253,5822.74
555.337,5745.92
555.421,5716.34
555.505,5787.16
555.589,5832.6
555.672,5825.92
555.756,5806.64
555.84,5833.6
555.924,5872.9
556.007,5829.74
556.091,5780.42
556.175,5817.52
556.259,5858.32
556.342,5884.96
556.426,5880.82
556.51,5906.44
556.594,5908.28
556.678,5905.26
556.761,5908.3
556.845,5954.34
556.929,5868.9
557.013,5858.58
557.096,5949.56
557.18,5987.42
557.264,5940.06
557.347,5930.12
557.431,5964.52
557.515,5986.44
557.599,5952.32
557.682,6005.6
557.766,5991.2
557.85,5993.42
557.934,5998.88
558.017,6016.22
558.101,6051.76
558.185,6066.18
558.269,6018.36
558.352,6051.12
558.436,6099.18
558.52,6062.98
558.603,6017.54
558.687,6011.56
558.771,6037.24
558.855,5994.16
558.938,6030.74
559.022,6102.62
559.106,6115.62
559.189,6152.12
559.273,6115.96
559.357,6057.88
559.44,6037.28
559.524,6095.64
559.608,6166.56
559.692,6221.64
559.775,6241.2
559.859,6144.84
559.943,6115.72
560.026,6109.16
560.11,6148.68
560.194,6217.58
560.277,6227.58
560.361,6159.94
560.445,6242.16
560.528,6227.26
560.612,6191.62
560.696,6219.44
560.779,6262.7
560.863,6303.2
560.947,6316.84
561.03,6281.24
561.114,6304.68
561.198,6350.22
561.281,6410.9
561.365,6517.96
561.449,6531.9
561.532,6491.72
561.616,6407.92
561.7,6410.28
561.783,6410.44
561.867,6414.3
561.951,6412.88
562.034,6349.72
562.118,6303.7
562.202,6327.44
562.285,6388.54
562.369,6439.74
562.452,6438.54
562.536,6453.6
562.62,6485.24
562.703,6481.94
562.787,6482.9
562.871,6452.28
562.954,6484.18
563.038,6444.86
563.122,6486.28
563.205,6516.62
563.289,6469.32
563.372,6438.58
563.456,6449.6
563.54,6528.84
563.623,6573.74
563.707,6623.78
563.79,6667.7
563.874,6650.74
563.958,6703.7
564.041,6684.04
564.125,6598.1
564.208,6666.74
564.292,6723.32
564.376,6674.92
564.459,6655.86
564.543,6668.28
564.626,6654.66
564.71,6632.12
564.794,6689.4
564.877,6760.64
564.961,6754.3
565.044,6800.5
565.128,6779.56
565.212,6725.1
565.295,6703.46
565.379,6746.68
565.462,6784.62
565.546,6793.98
565.629,6749.14
565.713,6789.66
565.797,6850.48
565.88,6886.38
565.964,6906.02
566.047,6994.88
566.131,7026.12
566.214,6987.2
566.298,6872.34
566.381,6847.6
566.465,6874.38
566.549,6822.64
566.632,6829.24
566.716,6839.32
566.799,6874.68
566.883,6878.6
566.966,6889.16
567.05,6898.44
567.133,6888.8
567.217,6956.74
567.3,6964.54
567.384,6926.84
567.468,6940.94
567.551,6969.96
567.635,6991.66
567.718,6925.66
567.802,6941.32
567.885,6982.94
567.969,6982.62
568.052,7043.1
568.136,7054.98
568.219,7078.58
568.303,7091.64
568.386,7141.64
568.47,7176.1
568.553,7125.5
568.637,7060.1
568.72,7148.98
568.804,7208.66
568.887,7237.4
568.971,7171.36
569.054,7152.48
569.138,7226.52
569.221,7248.26
569.305,7288.42
569.388,7292.6
569.472,7285.52
569.555,7316.06
569.639,7261.56
569.722,7250.3
569.806,7274.78
569.889,7320.28
569.973,7365.6
570.056,7322.64
570.14,7375.4
570.223,7400.16
570.307,7416.44
570.39,7473.6
570.474,7480.02
570.557,7406.92
570.64,7433.56
570.724,7495.24
570.807,7553.44
570.891,7512.4
570.974,7522.02
571.058,7604.58
571.141,7656.7
571.225,7663.0
571.308,7746.64
571.392,7786.32
571.475,7867.74
571.558,7867.82
571.642,7821.14
571.725,7797.7
571.809,7815.42
571.892,7789.9
571.976,7824.98
572.059,7840.54
572.143,7818.4
572.226,7803.58
572.309,7826.5
572.393,7919.66
572.476,7894.74
572.56,7940.68
572.643,7996.68
572.726,7961.34
572.81,7951.02
572.893,7980.92
572.977,8021.5
573.06,7958.92
573.144,7933.28
573.227,8055.18
573.31,8098.98
573.394,8049.72
573.477,7917.26
573.561,7867.42
573.644,7859.16
573.727,7961.26
573.811,7934.66
573.894,7889.58
573.978,7874.2
574.061,7789.02
574.144,7874.26
574.228,7953.62
574.311,7875.98
574.395,7881.84
574.478,7857.44
574.561,7786.82
574.645,7779.68
574.728,7761.02
574.811,7836.48
574.895,7908.02
574.978,7810.46
575.062,7758.74
575.145,7812.98
575.228,7877.36
575.312,7864.96
575.395,7803.38
575.478,7886.56
575.562,7863.88
575.645,7845.64
575.728,7862.94
575.812,7904.12
575.895,7938.84
575.978,8028.58
576.062,8099.68
576.145,8076.6
576.228,8040.1
576.312,8011.06
576.395,8057.5
576.478,8122.26
576.562,8039.48
576.645,8004.16
576.728,8029.06
576.812,8038.2
576.895,7955.94
576.978,7899.74
577.062,7937.26
577.145,7857.72
577.228,7878.12
577.312,7989.32
577.395,8011.46
577.478,7889.66
577.562,7790.58
577.645,7860.6
577.728,7880.44
577.812,7869.98
577.895,7893.72
577.978,7806.98
578.062,7726.26
578.145,7731.58
578.228,7817.8
578.311,7868.5
578.395,7843.6
578.478,7795.72
578.561,7766.92
578.645,7855.48
578.728,7793.48
578.811,7806.14
578.894,7837.12
578.978,7884.56
579.061,7887.44
579.144,7858.76
579.228,7877.62
579.311,7851.68
579.394,7849.6
579.477,7915.9
579.561,7981.28
579.644,8045.44
579.727,8036.66
579.81,8003.46
579.894,7964.36
579.977,7938.96
580.06,7967.5
580.144,8007.96
580.227,8066.44
580.31,8042.84
580.393,8138.56
580.477,8073.94
580.56,8159.7
580.643,8237.64
580.726,8315.58
580.809,8327.84
580.893,8308.96
580.976,8417.54
581.059,8372.52
581.142,8405.58
581.226,8510.16
581.309,8614.48
581.392,8632.74
581.475,8587.5
581.559,8601.72
581.642,8679.62
581.725,8648.3
581.808,8679.16
581.891,8653.22
581.975,8710.76
582.058,8544.2
582.141,8483.04
582.224,8396.04
582.307,8395.42
582.391,8421.88
582.474,8294.74
582.557,8131.26
582.64,8084.4
582.723,8040.6
582.807,7937.74
582.89,7938.8
582.973,7985.08
583.056,8030.1
583.139,7960.64
583.223,7857.26
583.306,7829.04
583.389,7839.58
583.472,7936.56
583.555,7959.8
583.639,7890.78
583.722,7850.9
583.805,7790.68
583.888,7760.96
583.971,7840.12
584.054,7888.72
584.138,7867.46
584.221,7848.14
584.304,7817.64
584.387,7792.88
584.47,7771.16
584.553,7745.86
584.636,7702.56
584.72,7718.66
584.803,7755.5
584.886,7746.18
584.969,7782.84
585.052,7860.36
585.135,7809.64
585.218,7721.76
585.302,7664.16
585.385,7586.46
585.468,7682.48
585.551,7737.24
585.634,7732.54
585.717,7697.12
585.8,7684.98
585.884,7722.1
585.967,7772.68
586.05,7722.08
586.133,7621.66
586.216,7666.7
586.299,7716.84
586.382,7665.94
586.465,7606.26
586.548,7635.9
586.632,7738.4
586.715,7734.66
586.798,7774.02
586.881,7748.6
586.964,7757.42
587.047,7819.34
587.13,7801.92
587.213,7666.0
587.296,7736.86
587.379,7766.9
587.463,7796.86
587.546,7753.02
587.629,7662.16
587.712,7718.28
587.795,7780.64
587.878,7825.12
587.961,7764.4
588.044,7740.8
588.127,7730.48
588.21,7765.48
588.293,7776.26
588.376,7735.56
588.459,7759.5
588.542,7719.82
588.626,7714.76
588.709,7727.56
588.792,7688.48
588.875,7720.9
588.958,7752.86
589.041,7735.88
589.124,7718.24
589.207,7728.08
589.29,7757.76
589.373,7757.3
589.456,7777.28
589.539,7729.84
589.622,7593.2
589.705,7576.42
589.788,7608.76
589.871,7682.78
589.954,7733.74
590.037,7668.8
590.12,7635.6
590.203,7651.8
590.286,7668.12
590.369,7568.7
590.452,7683.0
590.535,7712.0
590.618,7687.04
590.701,7729.44
590.784,7620.76
590.867,7568.3
590.95,7623.72
591.033,7670.36
591.116,7824.12
591.199,7882.08
591.282,7764.66
591.365,7669.9
591.448,7613.02
591.531,7623.18
591.614,7615.94
591.697,7660.76
591.78,7757.84
591.863,7783.3
591.946,7777.28
592.029,7789.5
592.112,7858.96
592.195,7728.54
592.278,7639.2
592.361,7633.02
592.444,7727.98
592.527,7780.46
592.61,7809.18
592.693,7794.36
592.776,7705.74
592.859,7635.22
592.942,7576.76
593.025,7641.4
593.108,7707.26
593.191,7595.08
593.274,7606.88
593.357,7634.18
593.44,7621.96
593.523,7684.08
593.606,7754.22
593.688,7689.82
593.771,7652.92
593.854,7688.44
593.937,7693.88
594.02,7668.84
594.103,7637.86
594.186,7633.06
594.269,7689.06
594.352,7753.4
594.435,7668.48
594.518,7636.1
594.601,7567.5
594.684,7584.02
594.767,7616.8
594.849,7618.44
594.932,7625.72
595.015,7748.2
595.098,7809.38
595.181,7695.12
595.264,7645.38
595.347,7684.0
595.43,7660.78
595.513,7594.86
595.596,7691.84
595.678,7709.14
595.761,7694.02
595.844,7723.54
595.927,7774.54
596.01,7811.02
596.093,7723.52
596.176,7571.46
596.259,7617.76
596.341,7739.86
596.424,7638.74
596.507,7627.54
596.59,7676.78
596.673,7734.38
596.756,7834.74
596.839,7799.34
596.922,7654.74
597.004,7660.76
597.087,7697.7
597.17,7718.12
597.253,7654.84
597.336,7574.0
597.419,7661.96
597.502,7632.08
597.584,7643.26
597.667,7605.98
597.75,7658.1
597.833,7742.36
597.916,7690.16
597.999,7599.88
598.081,7664.88
598.164,7682.08
598.247,7721.94
598.33,7676.1
598.413,7630.74
598.496,7579.42
598.578,7574.92
598.661,7657.26
598.744,7678.04
598.827,7694.24
598.91,7687.64
598.992,7640.02
599.075,7577.32
599.158,7646.38
599.241,7704.68
599.324,7728.44
599.406,7597.6
599.489,7577.8
599.572,7679.76
599.655,7702.06
599.738,7629.54
599.82,7559.96
599.903,7590.64
599.986,7613.68
600.069,7596.12
600.152,7626.38
600.234,7659.44
600.317,7716.04
600.4,7670.04
600.483,7609.38
600.565,7596.48
600.648,7622.76
600.731,7689.4
600.814,7609.22
600.896,7553.6
600.979,7605.3
601.062,7690.76
601.145,7685.26
601.228,7653.04
601.31,7633.62
601.393,7630.4
601.476,7664.82
601.558,7654.04
601.641,7659.1
601.724,7657.76
601.807,7642.98
601.889,7597.42
601.972,7603.88
602.055,7605.16
602.138,7624.46
602.22,7562.58
602.303,7516.9
602.386,7623.6
602.469,7616.96
602.551,7571.12
602.634,7618.04
602.717,7591.24
602.799,7603.8
602.882,7702.38
602.965,7709.22
603.048,7637.26
603.13,7473.38
603.213,7489.22
603.296,7630.74
603.378,7676.7
603.461,7602.94
603.544,7500.32
603.626,7552.04
603.709,7601.96
603.792,7537.34
603.875,7474.64
603.957,7497.26
604.04,7509.56
604.123,7567.18
604.205,7629.76
604.288,7542.22
604.371,7506.42
604.453,7575.44
604.536,7621.92
604.619,7654.32
604.701,7511.3
604.784,7435.66
604.867,7550.0
604.949,7552.52
605.032,7520.28
605.115,7448.96
605.197,7516.56
605.28,7563.54
605.363,7522.66
605.445,7389.12
605.528,7487.54
605.611,7591.2
605.693,7487.84
605.776,7452.6
605.858,7472.58
605.941,7415.42
606.024,7506.34
606.106,7550.08
606.189,7478.58
606.272,7482.92
606.354,7534.08
606.437,7443.7
606.519,7418.62
606.602,7542.14
606.685,7642.96
606.767,7533.9
606.85,7466.84
606.933,7499.66
607.015,7518.52
607.098,7467.14
607.18,7482.78
607.263,7468.16
607.346,7479.04
607.428,7447.9
607.511,7469.3
607.593,7445.86
607.676,7505.46
607.759,7479.2
607.841,7457.0
607.924,7514.9
608.006,7492.66
608.089,7511.22
608.171,7475.22
608.254,7460.72
608.337,7475.74
608.419,7488.68
608.502,7426.92
608.584,7462.4
608.667,7490.36
608.749,7426.78
608.832,7339.9
608.915,7459.02
608.997,7462.8
609.08,7504.96
609.162,7435.92
609.245,7447.38
609.327,7421.26
609.41,7311.18
609.492,7346.22
609.575,7460.26
609.658,7512.54
609.74,7438.5
609.823,7428.22
609.905,7441.74
609.988,7472.06
610.07,7435.42
610.153,7405.3
610.235,7411.76
610.318,7409.1
610.4,7395.16
610.483,7426.2
610.565,7375.2
610.648,7369.48
610.73,7432.46
610.813,7497.0
610.895,7482.92
610.978,7397.64
611.06,7378.42
611.143,7380.08
611.225,7429.32
611.308,7517.4
611.39,7440.56
611.473,7420.08
611.555,7383.82
611.638,7379.96
611.72,7394.34
611.803,7365.72
611.885,7435.78
611.968,7498.48
612.05,7398.22
612.133,7312.72
612.215,7404.3
612.298,7283.98
612.38,7270.82
612.463,7378.1
612.545,7459.0
612.628,7417.36
612.71,7380.98
612.792,7423.74
612.875,7368.1
612.957,7304.54
613.04,7362.52
613.122,7348.5
613.205,7271.14
613.287,7358.74
613.37,7361.0
613.452,7360.26
613.534,7411.78
613.617,7416.74
613.699,7301.5
613.782,7386.48
613.864,7454.4
613.947,7387.32
614.029,7299.94
614.111,7257.12
614.194,7294.88
614.276,7323.48
614.359,7372.2
614.441,7381.86
614.524,7307.6
614.606,7297.94
614.688,7402.86
614.771,7422.26
614.853,7288.0
614.936,7293.04
615.018,7309.56
615.1,7355.34
615.183,7314.92
615.265,7323.46
615.348,7350.04
615.43,7340.62
615.512,7268.46
615.595,7314.32
615.677,7326.34
615.76,7239.54
615.842,7234.52
615.924,7385.3
616.007,7524.28
616.089,7488.3
616.171,7354.44
616.254,7320.92
616.336,7349.22
616.418,7313.84
616.501,7285.04
616.583,7215.96
616.666,7246.66
616.748,7269.52
616.83,7301.82
616.913,7389.24
616.995,7363.1
617.077,7245.2
617.16,7245.94
617.242,7314.84
617.324,7364.46
617.407,7391.82
617.489,7329.96
617.571,7273.8
617.654,7300.74
617.736,7353.58
617.818,7340.24
617.901,7345.9
617.983,7270.44
618.065,7326.82
618.148,7337.44
618.23,7231.34
618.312,7251.76
618.395,7330.94
618.477,7365.6
618.559,7358.62
618.641,7359.92
618.724,7288.02
618.806,7205.28
618.888,7245.0
618.971,7270.1
619.053,7305.08
619.135,7337.76
619.218,7294.36
619.3,7322.38
619.382,7343.76
619.464,7358.32
619.547,7362.34
619.629,7359.36
619.711,7312.94
619.793,7346.38
619.876,7372.94
619.958,7340.6
620.04,7196.18
620.123,7194.64
620.205,7280.48
620.287,7303.4
620.369,7343.94
620.452,7305.12
620.534,7256.7
620.616,7301.76
620.698,7334.42
620.781,7213.0
620.863,7217.44
620.945,7291.5
621.027,7241.26
621.11,7318.46
621.192,7281.92
621.274,7298.84
621.356,7308.26
621.438,7311.34
621.521,7299.72
621.603,7312.1
621.685,7308.6
621.767,7320.84
621.85,7277.96
621.932,7211.88
622.014,7169.78
622.096,7190.76
622.178,7312.38
622.261,7338.38
622.343,7308.7
622.425,7318.92
622.507,7308.32
622.589,7239.44
622.672,7208.84
622.754,7208.8
622.836,7131.12
622.918,7171.42
623.0,7137.5
623.083,7121.6
623.165,7188.26
623.247,7199.8
623.329,7318.64
623.411,7240.62
623.493,7212.18
623.576,7135.82
623.658,7169.08
623.74,7216.26
623.822,7113.42
623.904,7196.22
623.986,7244.92
624.069,7210.1
624.151,7151.36
624.233,7099.48
624.315,7153.28
624.397,7203.8
624.479,7235.76
624.561,7181.9
624.644,7162.58
624.726,7088.46
624.808,7089.7
624.89,7068.06
624.972,7183.02
625.054,7121.72
625.136,7108.62
625.218,7137.66
625.301,7146.9
625.383,7071.98
625.465,7055.74
625.547,7096.9
625.629,7086.78
625.711,7054.52
625.793,7077.98
625.875,7105.32
625.958,7169.76
626.04,7154.4
626.122,7135.06
626.204,7106.7
626.286,7203.08
626.368,7235.6
626.45,7253.48
626.532,7316.98
626.614,7420.08
626.696,7572.62
626.778,7621.62
626.86,7727.52
626.943,8029.48
627.025,8321.34
627.107,8416.62
627.189,8429.2
627.271,8371.82
627.353,8247.9
627.435,8156.64
627.517,8083.42
627.599,8013.54
627.681,7894.68
627.763,7854.18
627.845,7806.32
627.927,7819.0
628.009,7794.94
628.091,7890.32
628.173,7997.64
628.255,8209.58
628.338,8395.4
628.42,8520.3
628.502,8529.04
628.584,8453.12
628.666,8256.14
628.748,8095.64
628.83,8025.1
628.912,7929.16
628.994,7843.04
629.076,7776.84
629.158,7759.22
629.24,7823.32
629.322,7799.98
629.404,7726.56
629.486,7696.14
629.568,7580.92
629.65,7469.44
629.732,7393.56
629.814,7366.42
629.896,7439.32
629.978,7485.46
630.06,7459.0
630.142,7431.92
630.224,7452.18
630.306,7436.08
630.388,7376.44
630.47,7374.96
630.552,7290.8
630.634,7228.1
630.716,7280.56
630.798,7244.74
630.88,7156.56
630.961,7077.44
631.043,7004.12
631.125,6889.12
631.207,6946.46
631.289,7069.24
631.371,7013.42
631.453,6955.96
631.535,6849.36
631.617,6797.5
631.699,6880.76
631.781,6912.54
631.863,6878.74
631.945,6898.66
632.027,6877.08
632.109,6901.36
632.191,6815.2
632.273,6659.82
632.355,6645.3
632.436,6846.54
632.518,6963.84
632.6,6950.64
632.682,6825.24
632.764,6712.18
632.846,6752.74
632.928,6779.26
633.01,6717.82
633.092,6713.2
633.174,6731.36
633.256,6761.28
633.337,6710.56
633.419,6780.08
633.501,6786.26
633.583,6764.6
633.665,6777.86
633.747,6764.12
633.829,6641.12
633.911,6647.68
633.993,6679.86
634.074,6678.24
634.156,6632.84
634.238,6623.14
634.32,6656.94
634.402,6676.8
634.484,6642.06
